Hydrogen
Integration time [ms]: 600,000
Averaging Nr. [scans]: 10
Smoothing Nr. [pixels]: 0
Data measured with spectrometer [name]: 1804343U2
Wave   ;Sample   ;Dark     ;Reference;Scope
[nm]   ;[counts] ;[counts] ;[counts] 

318,006;  143,800;  149,100;    0,000
318,025;  141,400;   97,600;    0,000
318,044;   76,000;   68,100;    0,000
318,063; -313,800; -244,300;    0,000
318,082;  162,000;  151,600;    0,000
318,102;   72,600;   62,200;    0,000
318,121;  175,200;  111,300;    0,000
318,140;  -22,000;  -21,900;    0,000
318,159;  320,200;  244,000;    0,000
318,179;  -96,300;  -96,100;    0,000
318,198;  208,900;  144,100;    0,000
318,217;  521,800;  404,400;    0,000
318,236;  -12,600;   -4,500;    0,000
318,255; -175,800; -110,000;    0,000
318,275;  241,500;  202,500;    0,000
318,294; -338,600; -265,100;    0,000
318,313;  543,400;  444,600;    0,000
318,332;  -97,400;  -71,500;    0,000
318,351;  202,900;  159,300;    0,000
318,370; -183,100; -162,000;    0,000
318,390; -194,300; -147,300;    0,000
318,409;   -0,100;    2,800;    0,000
318,428;   18,800;   17,900;    0,000
318,447;  -38,700;  -61,000;    0,000
318,466; -214,800; -146,600;    0,000
318,485; -265,200; -180,700;    0,000
318,505;  146,700;  111,600;    0,000
318,524; -255,800; -186,600;    0,000
318,543;  285,300;  218,400;    0,000
318,562;   -9,600;  -19,800;    0,000
318,581;    9,900;   13,400;    0,000
318,600;  115,500;   61,100;    0,000
318,620;  388,200;  300,800;    0,000
318,639; -277,200; -201,100;    0,000
318,658;  185,800;  166,400;    0,000
318,677;   47,300;   31,400;    0,000
318,696;  150,200;  129,100;    0,000
318,715; -311,600; -230,700;    0,000
318,734;  -87,700;  -78,400;    0,000
318,754;   52,300;   68,900;    0,000
318,773;   60,800;   75,800;    0,000
318,792;  -56,300;  -95,500;    0,000
318,811;  267,800;  219,800;    0,000
318,830;  -99,000;  -69,200;    0,000
318,849;  300,800;  220,300;    0,000
318,868;  -39,000;  -66,400;    0,000
318,887;  -55,600;   -7,800;    0,000
318,906;  125,600;   81,500;    0,000
318,926;  233,100;  174,400;    0,000
318,945; -118,000; -101,100;    0,000
318,964;   56,000;   65,700;    0,000
318,983;   70,300;   37,300;    0,000
319,002;  254,400;  199,200;    0,000
319,021; -173,600; -153,400;    0,000
319,040;   59,900;   63,200;    0,000
319,059;  184,300;  143,400;    0,000
319,078;  111,000;  139,700;    0,000
319,097;  285,900;  235,100;    0,000
319,117;  -32,300;   -8,600;    0,000
319,136;   -3,000;  -14,400;    0,000
319,155;  -69,500;  -54,000;    0,000
319,174;  348,500;  275,700;    0,000
319,193;   -8,900;  -25,100;    0,000
319,212; -136,600; -107,000;    0,000
319,231; -110,800; -101,100;    0,000
319,250;   31,400;   16,300;    0,000
319,269;  316,400;  251,000;    0,000
319,288;  -97,800;  -50,500;    0,000
319,307; -208,300; -170,400;    0,000
319,326;  387,800;  288,700;    0,000
319,345;  287,200;  193,000;    0,000
319,364;   48,000;   25,000;    0,000
319,384;  432,700;  359,600;    0,000
319,403;   17,000;   22,800;    0,000
319,422;  434,700;  303,500;    0,000
319,441;   32,600;   -6,200;    0,000
319,460;  157,100;  152,100;    0,000
319,479;  -50,300;  -65,500;    0,000
319,498;  307,300;  240,300;    0,000
319,517;  230,400;  196,800;    0,000
319,536;  231,900;  185,800;    0,000
319,555;  -76,600;  -87,200;    0,000
319,574;  -11,700;  -32,300;    0,000
319,593;  127,800;   80,400;    0,000
319,612;  271,400;  234,700;    0,000
319,631;  -87,900;  -80,500;    0,000
319,650;  446,600;  333,600;    0,000
319,669;  -84,300;  -67,700;    0,000
319,688;  412,900;  318,600;    0,000
319,707; -179,600; -175,700;    0,000
319,726;  263,800;  208,100;    0,000
319,745; -155,600; -149,400;    0,000
319,764;  123,300;  119,700;    0,000
319,783;  308,900;  268,900;    0,000
319,802; -293,000; -237,500;    0,000
319,821;  218,200;  162,700;    0,000
319,840; -184,400; -115,500;    0,000
319,859;  577,500;  463,500;    0,000
319,878;  332,000;  284,500;    0,000
319,897;  198,000;  141,900;    0,000
319,916;  141,800;  110,500;    0,000
319,935; -118,300;  -88,000;    0,000
319,954;  147,700;   78,500;    0,000
319,973;  390,100;  301,000;    0,000
319,992;  172,400;  139,100;    0,000
320,011;  -93,900;  -86,700;    0,000
320,030;  240,100;  188,900;    0,000
320,049;   -5,200;   14,700;    0,000
320,068;  142,100;  149,800;    0,000
320,087;  -63,300;  -43,100;    0,000
320,106;  258,100;  238,100;    0,000
320,125;   -8,400;  -29,400;    0,000
320,144;  106,000;  124,600;    0,000
320,163;  149,500;   87,500;    0,000
320,182;  211,800;  152,000;    0,000
320,201;  219,100;  134,500;    0,000
320,220;  180,500;  146,900;    0,000
320,239;  221,300;  143,300;    0,000
320,257;  568,200;  444,400;    0,000
320,276;   69,900;   10,700;    0,000
320,295;  -77,500;  -63,200;    0,000
320,314;  -29,400;  -13,300;    0,000
320,333;  248,000;  164,400;    0,000
320,352;   -1,500;  -34,400;    0,000
320,371;  200,800;  175,000;    0,000
320,390;    3,300;   -0,200;    0,000
320,409;   45,600;   53,300;    0,000
320,428; -249,800; -214,300;    0,000
320,447;   -0,700;    6,100;    0,000
320,466; -143,400; -100,300;    0,000
320,485;  181,900;  150,100;    0,000
320,504;  -43,200;  -32,900;    0,000
320,522;   40,200;   26,200;    0,000
320,541;  195,500;  166,100;    0,000
320,560;  253,000;  174,900;    0,000
320,579; -156,400; -111,700;    0,000
320,598;  100,300;   97,000;    0,000
320,617; -212,500; -171,400;    0,000
320,636;   16,300;    2,200;    0,000
320,655;  -46,100;  -44,200;    0,000
320,674;  396,200;  309,100;    0,000
320,693;  210,800;  177,100;    0,000
320,711;   67,100;   64,300;    0,000
320,730; -113,600; -114,400;    0,000
320,749;  438,400;  332,100;    0,000
320,768;  227,000;  199,700;    0,000
320,787;  322,100;  241,300;    0,000
320,806; -224,700; -156,100;    0,000
320,825;  206,400;  149,900;    0,000
320,844; -139,800; -105,200;    0,000
320,862;  -78,100;  -71,700;    0,000
320,881; -127,600; -101,500;    0,000
320,900;  261,200;  219,600;    0,000
320,919; -193,900; -163,300;    0,000
320,938;   25,500;   16,700;    0,000
320,957;  236,800;  159,700;    0,000
320,976;  326,500;  231,400;    0,000
320,994;  -33,000;  -10,000;    0,000
321,013;  -31,500;  -49,500;    0,000
321,032;  -40,700;  -21,400;    0,000
321,051;  518,600;  417,900;    0,000
321,070;  179,400;  136,500;    0,000
321,089;  342,600;  234,100;    0,000
321,108; -374,700; -321,800;    0,000
321,126;   94,300;   99,100;    0,000
321,145;  121,600;  111,400;    0,000
321,164; -126,700;  -76,800;    0,000
321,183; -212,900; -167,700;    0,000
321,202;   46,000;   57,500;    0,000
321,221; -423,100; -350,300;    0,000
321,239;  -42,300;  -13,800;    0,000
321,258;  153,300;  122,400;    0,000
321,277;  158,100;  125,800;    0,000
321,296; -193,800; -163,500;    0,000
321,315;  135,300;  102,200;    0,000
321,333;  -32,000;  -26,500;    0,000
321,352; -128,800;  -89,200;    0,000
321,371; -144,600; -118,600;    0,000
321,390;  271,900;  220,700;    0,000
321,409;  -36,100;  -46,800;    0,000
321,427;   76,200;   57,800;    0,000
321,446; -156,400; -146,300;    0,000
321,465;  278,900;  229,900;    0,000
321,484; -297,900; -253,300;    0,000
321,503;  405,000;  300,500;    0,000
321,521;   68,900;   18,000;    0,000
321,540;  225,000;  177,200;    0,000
321,559; -146,200; -139,400;    0,000
321,578; -200,500; -147,600;    0,000
321,597; -116,200;  -95,700;    0,000
321,615;   28,300;   12,900;    0,000
321,634;  -41,000;  -38,400;    0,000
321,653;   35,700;   81,700;    0,000
321,672;    5,900;  -35,000;    0,000
321,690;  -63,300;  -17,900;    0,000
321,709; -154,300; -116,600;    0,000
321,728;   55,900;   22,800;    0,000
321,747;  -52,100;  -60,000;    0,000
321,765;  131,500;   94,700;    0,000
321,784;   80,300;   94,900;    0,000
321,803;  378,400;  289,200;    0,000
321,822;  298,700;  230,700;    0,000
321,840;  183,500;  114,800;    0,000
321,859;  159,100;  101,900;    0,000
321,878;  374,100;  302,900;    0,000
321,897;   65,100;   29,800;    0,000
321,915;  -22,700;  -19,600;    0,000
321,934;  -42,200;  -36,800;    0,000
321,953;  163,800;  148,700;    0,000
321,972; -260,800; -188,400;    0,000
321,990;  425,900;  362,600;    0,000
322,009; -260,400; -202,400;    0,000
322,028;  331,200;  276,300;    0,000
322,046;  -48,900;   -5,100;    0,000
322,065;  263,200;  222,600;    0,000
322,084;   85,200;   88,800;    0,000
322,103; -131,000;  -67,700;    0,000
322,121; -201,200; -153,600;    0,000
322,140;  -69,100;  -18,400;    0,000
322,159;  154,800;  128,000;    0,000
322,177;    4,300;   22,100;    0,000
322,196; -119,600; -124,400;    0,000
322,215; -135,600; -101,600;    0,000
322,234;  -44,800;  -80,100;    0,000
322,252;  166,300;  143,500;    0,000
322,271;   32,100;    4,800;    0,000
322,290;  116,100;  100,800;    0,000
322,308;    1,200;  -20,900;    0,000
322,327;  221,900;  163,100;    0,000
322,346;   46,100;   32,200;    0,000
322,364;  -29,600;  -29,500;    0,000
322,383; -107,100;  -72,300;    0,000
322,402;   79,800;   72,600;    0,000
322,420; -125,800;  -94,400;    0,000
322,439;   67,900;   78,100;    0,000
322,458; -200,600; -149,800;    0,000
322,476;   38,700;   25,400;    0,000
322,495;  -61,400;  -57,200;    0,000
322,514;   85,200;   68,800;    0,000
322,532;  187,400;  150,500;    0,000
322,551;  370,800;  273,000;    0,000
322,570;  354,400;  275,200;    0,000
322,588;  299,200;  278,700;    0,000
322,607;  -26,500;  -25,100;    0,000
322,626; -157,900;  -80,600;    0,000
322,644;   -6,900;  -14,700;    0,000
322,663;  111,200;   62,500;    0,000
322,681; -172,700; -128,100;    0,000
322,700;  348,600;  276,900;    0,000
322,719; -169,100; -147,700;    0,000
322,737;  150,700;  119,500;    0,000
322,756;  -15,000;   -0,300;    0,000
322,775;  -35,500;  -16,800;    0,000
322,793; -254,200; -194,100;    0,000
322,812;   42,000;   65,000;    0,000
322,831;  -63,000;  -75,600;    0,000
322,849;  206,300;  145,200;    0,000
322,868;   55,000;   62,900;    0,000
322,886;  157,600;  145,800;    0,000
322,905;  185,100;  112,800;    0,000
322,924;    3,500;    0,600;    0,000
322,942; -239,700; -215,200;    0,000
322,961;  354,900;  286,200;    0,000
322,979;  246,600;  191,300;    0,000
322,998;  -49,500;  -40,200;    0,000
323,017; -135,300; -134,600;    0,000
323,035; -177,400;  -95,000;    0,000
323,054;   73,500;   33,700;    0,000
323,072;  139,400;  120,200;    0,000
323,091; -111,600;  -84,800;    0,000
323,110;   68,800;   63,400;    0,000
323,128;  330,300;  218,900;    0,000
323,147;  131,700;  130,600;    0,000
323,165;  110,800;   92,300;    0,000
323,184;  597,900;  503,500;    0,000
323,202;   77,900;   41,100;    0,000
323,221;  132,100;   91,100;    0,000
323,240; -148,100;  -95,700;    0,000
323,258;  554,800;  452,700;    0,000
323,277; -132,400; -130,600;    0,000
323,295;  344,300;  289,600;    0,000
323,314;  119,800;   94,100;    0,000
323,332; -125,400;  -91,900;    0,000
323,351; -103,700;  -98,900;    0,000
323,369;  217,500;  215,000;    0,000
323,388; -201,900; -178,000;    0,000
323,407;  279,500;  213,800;    0,000
323,425; -158,800; -127,300;    0,000
323,444;  149,900;  117,700;    0,000
323,462;   24,800;   52,400;    0,000
323,481;  179,600;  162,200;    0,000
323,499;  251,600;  185,700;    0,000
323,518;   11,400;    5,700;    0,000
323,536;  362,700;  281,800;    0,000
323,555;  160,400;  134,800;    0,000
323,573; -164,200; -157,400;    0,000
323,592;  145,500;  130,200;    0,000
323,610; -284,200; -208,200;    0,000
323,629;  222,400;  211,600;    0,000
323,647; -322,600; -246,100;    0,000
323,666;   44,000;   51,000;    0,000
323,684; -158,900; -152,800;    0,000
323,703;  227,300;  179,300;    0,000
323,721; -106,000;  -75,700;    0,000
323,740;  644,300;  508,300;    0,000
323,758;  620,800;  500,200;    0,000
323,777;   86,400;   97,700;    0,000
323,795; -128,900; -107,400;    0,000
323,814;  296,300;  197,900;    0,000
323,832;    5,100;   -0,400;    0,000
323,851;  269,500;  212,500;    0,000
323,869;   -8,100;   10,500;    0,000
323,888;  249,700;  167,700;    0,000
323,906;  -11,100;  -12,900;    0,000
323,925;  303,100;  241,500;    0,000
323,943;  -78,900;  -64,300;    0,000
323,962;  352,700;  259,300;    0,000
323,980;  -45,400;  -59,800;    0,000
323,999;  -34,100;  -44,400;    0,000
324,017;   24,600;    6,500;    0,000
324,036;   43,100;   56,200;    0,000
324,054;  -92,100;  -66,800;    0,000
324,073;  602,700;  483,200;    0,000
324,091; -178,100; -142,300;    0,000
324,109;  -18,000;   -9,200;    0,000
324,128;  -77,400;  -53,200;    0,000
324,146;  518,300;  432,300;    0,000
324,165; -197,700; -123,400;    0,000
324,183;   93,500;   56,400;    0,000
324,202;   52,000;   27,400;    0,000
324,220; -162,200; -116,700;    0,000
324,239; -276,100; -207,400;    0,000
324,257;  116,900;   93,900;    0,000
324,275;  -33,800;  -39,500;    0,000
324,294; -265,700; -205,700;    0,000
324,312;   87,400;   79,300;    0,000
324,331;   -5,700;   35,600;    0,000
324,349;  -35,000;  -11,500;    0,000
324,368;   40,300;   47,400;    0,000
324,386; -145,500; -133,200;    0,000
324,404;  312,900;  272,500;    0,000
324,423;   17,700;    2,500;    0,000
324,441;  276,000;  196,000;    0,000
324,460;   -7,600;  -23,900;    0,000
324,478;   64,200;   68,300;    0,000
324,496;  411,000;  359,000;    0,000
324,515;   53,400;   47,200;    0,000
324,533;  -28,300;  -25,700;    0,000
324,552;  636,700;  485,800;    0,000
324,570; -109,100; -104,100;    0,000
324,588;  719,400;  553,400;    0,000
324,607;  -51,700;  -41,600;    0,000
324,625;   -3,400;  -27,700;    0,000
324,644;  218,400;  172,100;    0,000
324,662;  323,800;  215,900;    0,000
324,680; -115,600; -110,100;    0,000
324,699;   -2,500;  -15,900;    0,000
324,717;  -84,500;  -37,700;    0,000
324,735;   -1,600;   10,700;    0,000
324,754; -120,300; -141,500;    0,000
324,772;  381,600;  311,300;    0,000
324,791;  -17,400;  -31,900;    0,000
324,809;   29,400;   11,600;    0,000
324,827; -127,200;  -87,400;    0,000
324,846; -160,000; -100,800;    0,000
324,864;  249,900;  178,100;    0,000
324,882; -306,600; -230,800;    0,000
324,901; -325,000; -279,500;    0,000
324,919;  241,100;  222,500;    0,000
324,937; -368,900; -294,300;    0,000
324,956;  125,000;   70,400;    0,000
324,974;  -60,300;  -37,600;    0,000
324,992;   26,800;   51,500;    0,000
325,011;   74,400;   54,100;    0,000
325,029;   39,600;   22,200;    0,000
325,047; -210,200; -191,400;    0,000
325,066;   -1,000;    5,900;    0,000
325,084; -258,200; -216,100;    0,000
325,102;  246,800;  177,600;    0,000
325,121;  134,700;  123,500;    0,000
325,139;  139,100;   90,200;    0,000
325,157; -276,200; -214,100;    0,000
325,176;  323,800;  234,200;    0,000
325,194; -266,000; -195,300;    0,000
325,212;  -73,800;  -57,900;    0,000
325,231;   14,800;   35,600;    0,000
325,249;   96,300;   78,100;    0,000
325,267; -113,100;  -84,600;    0,000
325,285;   51,900;   37,000;    0,000
325,304;  181,800;  139,400;    0,000
325,322;  221,100;  225,600;    0,000
325,340;  110,300;   63,000;    0,000
325,359;  294,100;  241,500;    0,000
325,377;    2,600;  -48,000;    0,000
325,395;  137,800;  117,000;    0,000
325,413;  141,000;   57,200;    0,000
325,432;   40,200;   17,000;    0,000
325,450;  127,200;   98,200;    0,000
325,468;  354,100;  257,200;    0,000
325,487;  166,800;  131,000;    0,000
325,505;  278,500;  195,000;    0,000
325,523; -152,500; -112,300;    0,000
325,541;  -64,600;  -73,700;    0,000
325,560; -159,400; -104,800;    0,000
325,578;  265,800;  242,300;    0,000
325,596;  269,700;  211,000;    0,000
325,614; -228,100; -164,400;    0,000
325,633;  329,000;  268,500;    0,000
325,651;  157,600;  107,200;    0,000
325,669;   79,900;   43,400;    0,000
325,687;   74,200;   91,400;    0,000
325,706;  422,300;  302,200;    0,000
325,724;   70,500;   66,000;    0,000
325,742;  212,000;  153,700;    0,000
325,760;  -54,200;  -40,100;    0,000
325,779; -432,900; -335,300;    0,000
325,797;  -71,600;  -61,600;    0,000
325,815; -454,700; -376,600;    0,000
325,833; -294,900; -234,600;    0,000
325,852;   12,400;   -4,500;    0,000
325,870;  155,400;  100,800;    0,000
325,888; -232,200; -213,500;    0,000
325,906;   99,000;   75,400;    0,000
325,924; -160,400; -154,600;    0,000
325,943;   47,500;   36,700;    0,000
325,961;  313,100;  249,900;    0,000
325,979; -175,800; -140,200;    0,000
325,997; -242,300; -199,400;    0,000
326,015;  -52,000;  -11,400;    0,000
326,034; -279,200; -217,300;    0,000
326,052;   77,200;   20,000;    0,000
326,070;   60,800;   52,700;    0,000
326,088;  220,900;  161,300;    0,000
326,106;  233,700;  155,700;    0,000
326,125;  -61,900;  -41,400;    0,000
326,143; -244,400; -206,800;    0,000
326,161;  257,600;  202,500;    0,000
326,179; -145,000; -111,600;    0,000
326,197;   21,700;   14,300;    0,000
326,216; -352,500; -306,800;    0,000
326,234;   68,900;   64,900;    0,000
326,252;  141,000;  104,400;    0,000
326,270;  236,200;  153,400;    0,000
326,288;   79,100;   50,200;    0,000
326,306;  195,100;  155,700;    0,000
326,325;   89,200;   35,700;    0,000
326,343;   97,400;   74,200;    0,000
326,361; -219,500; -158,400;    0,000
326,379;  226,100;  198,200;    0,000
326,397;  -43,000;  -23,000;    0,000
326,415;   76,600;   88,300;    0,000
326,433; -277,400; -245,400;    0,000
326,452;  231,400;  206,200;    0,000
326,470; -253,000; -195,200;    0,000
326,488;  174,200;  149,600;    0,000
326,506;    2,500;  -33,200;    0,000
326,524;  244,600;  195,700;    0,000
326,542;  302,500;  215,400;    0,000
326,560;  185,600;  163,200;    0,000
326,579;   52,500;   10,900;    0,000
326,597;  166,200;  127,100;    0,000
326,615;  230,900;  210,200;    0,000
326,633;  170,000;  126,100;    0,000
326,651;  160,900;  115,400;    0,000
326,669;  109,200;  105,800;    0,000
326,687; -162,800; -153,800;    0,000
326,705;  255,400;  206,700;    0,000
326,723;  102,000;   62,000;    0,000
326,742; -101,600;  -66,800;    0,000
326,760;  140,400;   77,600;    0,000
326,778;  181,000;  105,100;    0,000
326,796;  -48,600;  -45,500;    0,000
326,814; -156,800; -128,300;    0,000
326,832;   42,100;   46,100;    0,000
326,850;  -96,100; -112,400;    0,000
326,868; -423,200; -310,600;    0,000
326,886;  227,900;  206,000;    0,000
326,904;   12,700;   26,900;    0,000
326,922;   63,900;   70,700;    0,000
326,941; -245,300; -186,500;    0,000
326,959;  267,400;  250,400;    0,000
326,977;  -16,300;  -25,100;    0,000
326,995;   25,200;   34,900;    0,000
327,013; -123,900;  -93,100;    0,000
327,031; -153,200; -117,000;    0,000
327,049; -231,500; -184,800;    0,000
327,067;  -63,600;  -31,800;    0,000
327,085;  297,800;  225,800;    0,000
327,103;  320,000;  251,900;    0,000
327,121; -360,800; -272,300;    0,000
327,139;   70,900;   64,000;    0,000
327,157;  -52,200;  -61,400;    0,000
327,175;  424,500;  329,100;    0,000
327,193;  144,600;  118,600;    0,000
327,211;   -0,900;   -6,100;    0,000
327,229;   -1,300;    1,500;    0,000
327,247;  -74,000;  -57,700;    0,000
327,266;   67,600;   75,000;    0,000
327,284;  144,500;  106,500;    0,000
327,302;  102,800;   55,400;    0,000
327,320;  315,000;  267,100;    0,000
327,338;   81,800;  103,600;    0,000
327,356;  -19,200;    5,900;    0,000
327,374; -164,800; -130,300;    0,000
327,392;   44,400;   49,800;    0,000
327,410; -202,100; -172,400;    0,000
327,428;  196,200;  139,900;    0,000
327,446; -153,500; -109,200;    0,000
327,464;  196,400;  149,100;    0,000
327,482;  140,600;   82,700;    0,000
327,500;  -83,000;  -87,700;    0,000
327,518;  -98,200;  -83,000;    0,000
327,536;  470,800;  349,000;    0,000
327,554;  173,800;  125,400;    0,000
327,572;  109,400;   84,600;    0,000
327,590; -177,300; -151,300;    0,000
327,608;  209,800;  176,100;    0,000
327,626;  360,200;  258,300;    0,000
327,644;   15,100;   44,300;    0,000
327,662;  -39,100;  -33,200;    0,000
327,680;  252,300;  214,200;    0,000
327,698;  122,400;  104,400;    0,000
327,716;  -62,500;  -37,100;    0,000
327,734; -156,500; -122,600;    0,000
327,752;   26,700;    3,900;    0,000
327,770;   85,000;   77,700;    0,000
327,787;   -4,100;   -4,600;    0,000
327,805;   99,700;   92,600;    0,000
327,823;  248,300;  185,800;    0,000
327,841;  233,300;  159,300;    0,000
327,859;   82,600;   91,100;    0,000
327,877;   85,600;   69,900;    0,000
327,895;  368,000;  287,500;    0,000
327,913;  114,000;   78,600;    0,000
327,931;  484,100;  383,700;    0,000
327,949; -330,000; -261,200;    0,000
327,967;  382,700;  312,400;    0,000
327,985; -288,900; -251,400;    0,000
328,003;  393,900;  340,700;    0,000
328,021; -280,400; -233,200;    0,000
328,039;  129,300;  132,800;    0,000
328,057;  -26,100;  -10,400;    0,000
328,075;  224,200;  230,300;    0,000
328,092;  -41,500;  -23,000;    0,000
328,110;  -70,900;  -41,500;    0,000
328,128;  -71,400;  -35,500;    0,000
328,146;  302,800;  269,100;    0,000
328,164;    2,100;  -20,100;    0,000
328,182;  -21,700;  -25,200;    0,000
328,200;   59,600;   31,600;    0,000
328,218; -197,600; -130,300;    0,000
328,236;   16,600;   11,800;    0,000
328,254;  -44,200;  -27,300;    0,000
328,272;  269,300;  223,800;    0,000
328,289;   22,800;   19,200;    0,000
328,307;   54,600;   28,400;    0,000
328,325;   69,000;   49,000;    0,000
328,343;  -22,800;  -23,600;    0,000
328,361;  163,400;  119,200;    0,000
328,379; -161,400; -135,400;    0,000
328,397;   71,600;   67,500;    0,000
328,415; -122,700; -114,300;    0,000
328,432;  234,100;  167,600;    0,000
328,450;  145,800;  121,400;    0,000
328,468;  331,700;  263,900;    0,000
328,486; -130,000;  -69,900;    0,000
328,504;   89,900;   77,300;    0,000
328,522;  -97,800;  -82,700;    0,000
328,540;  268,600;  227,900;    0,000
328,558;   80,200;   66,100;    0,000
328,575;   58,000;   31,700;    0,000
328,593;  240,800;  162,800;    0,000
328,611;  125,600;  132,000;    0,000
328,629; -133,100;  -81,900;    0,000
328,647;  -12,700;  -14,100;    0,000
328,665; -163,900; -130,600;    0,000
328,682;  210,500;  157,400;    0,000
328,700;  434,800;  365,800;    0,000
328,718;  116,200;  117,800;    0,000
328,736; -117,400;  -57,100;    0,000
328,754;  231,700;  191,200;    0,000
328,772;  -53,400;  -49,500;    0,000
328,789; -201,900; -132,900;    0,000
328,807; -199,900; -126,200;    0,000
328,825;   32,200;   27,600;    0,000
328,843;  201,400;  177,000;    0,000
328,861;    9,300;   24,000;    0,000
328,879; -109,900; -112,800;    0,000
328,896; -101,000;  -57,300;    0,000
328,914;  120,900;  136,300;    0,000
328,932;  106,900;  111,200;    0,000
328,950;  -35,500;  -32,300;    0,000
328,968;  137,500;   96,000;    0,000
328,985;  132,800;   83,200;    0,000
329,003;  179,700;  127,300;    0,000
329,021;  278,100;  191,900;    0,000
329,039;   38,200;   39,300;    0,000
329,057;   59,100;   13,100;    0,000
329,074;   -9,500;    7,700;    0,000
329,092; -334,900; -264,400;    0,000
329,110; -115,200;  -47,400;    0,000
329,128;   96,300;   97,000;    0,000
329,146;   43,200;   43,000;    0,000
329,163; -369,000; -333,400;    0,000
329,181;  404,200;  318,800;    0,000
329,199; -257,800; -238,500;    0,000
329,217;  -71,500;  -18,900;    0,000
329,234;   33,300;  -14,400;    0,000
329,252; -206,100; -134,800;    0,000
329,270;    3,700;   11,900;    0,000
329,288;   99,900;   83,300;    0,000
329,305;  243,600;  191,400;    0,000
329,323;   95,300;  104,600;    0,000
329,341;   24,500;    7,900;    0,000
329,359;  540,900;  417,500;    0,000
329,376; -140,500; -117,700;    0,000
329,394;  -65,500;  -57,600;    0,000
329,412;  112,200;   70,200;    0,000
329,430;   43,100;   29,700;    0,000
329,447; -204,400; -174,500;    0,000
329,465;  -59,900;  -71,400;    0,000
329,483;  136,100;  127,000;    0,000
329,501;  308,800;  216,900;    0,000
329,518; -178,800; -157,400;    0,000
329,536;  -80,200;  -52,000;    0,000
329,554;  -33,400;  -22,900;    0,000
329,571;  317,400;  239,200;    0,000
329,589; -192,800; -138,600;    0,000
329,607;    9,000;   36,900;    0,000
329,625; -182,300; -137,300;    0,000
329,642;   -0,200;    2,500;    0,000
329,660; -376,800; -283,700;    0,000
329,678;  171,100;  133,900;    0,000
329,695; -148,500;  -99,900;    0,000
329,713;  -43,100;  -18,700;    0,000
329,731; -137,000; -112,500;    0,000
329,748; -109,600;  -81,700;    0,000
329,766;   59,200;   42,400;    0,000
329,784;  228,300;  212,300;    0,000
329,802;  396,300;  307,600;    0,000
329,819;  -30,300;    1,400;    0,000
329,837; -206,900; -205,400;    0,000
329,855;  -48,800;  -17,400;    0,000
329,872; -242,200; -176,400;    0,000
329,890;  252,700;  191,400;    0,000
329,908;  321,900;  237,100;    0,000
329,925;  140,200;  108,000;    0,000
329,943; -353,000; -248,900;    0,000
329,961;   12,500;   21,200;    0,000
329,978; -218,200; -152,900;    0,000
329,996;  125,100;  101,200;    0,000
330,014;  -32,100;  -14,400;    0,000
330,031;  250,700;  187,700;    0,000
330,049; -211,200; -192,900;    0,000
330,066;  214,500;  177,200;    0,000
330,084;  -73,300;  -66,900;    0,000
330,102;  171,400;  143,200;    0,000
330,119;  -57,500;  -13,700;    0,000
330,137;  291,200;  220,400;    0,000
330,155;   34,700;   40,400;    0,000
330,172;  -31,800;  -18,600;    0,000
330,190; -107,900;  -76,600;    0,000
330,208; -184,800; -153,200;    0,000
330,225; -386,800; -337,400;    0,000
330,243; -283,000; -195,000;    0,000
330,260;   25,300;    4,500;    0,000
330,278;  -33,500;   18,600;    0,000
330,296; -188,500; -184,000;    0,000
330,313;   62,900;   57,400;    0,000
330,331;   59,500;   69,000;    0,000
330,349;   52,300;   15,100;    0,000
330,366;  371,200;  255,200;    0,000
330,384;  264,800;  191,100;    0,000
330,401; -131,400; -104,100;    0,000
330,419;  -32,400;  -24,000;    0,000
330,437;  -14,700;    1,200;    0,000
330,454;  480,500;  375,400;    0,000
330,472;  125,200;  104,900;    0,000
330,489;  301,500;  215,100;    0,000
330,507;   33,600;    8,200;    0,000
330,525;  296,400;  265,900;    0,000
330,542; -186,700; -156,900;    0,000
330,560;  111,800;   68,900;    0,000
330,577;  231,500;  156,100;    0,000
330,595;  394,200;  306,800;    0,000
330,612;  -89,400;  -19,300;    0,000
330,630;  -66,200;  -56,800;    0,000
330,648;  -91,300;  -61,000;    0,000
330,665;   82,200;   26,400;    0,000
330,683; -362,900; -291,100;    0,000
330,700;   42,500;   18,700;    0,000
330,718;  -29,400;  -35,300;    0,000
330,735;  125,900;  130,300;    0,000
330,753;  -41,100;  -64,700;    0,000
330,770; -111,800;  -75,900;    0,000
330,788;  148,500;  113,900;    0,000
330,806; -151,100; -118,000;    0,000
330,823;    8,700;    5,200;    0,000
330,841;  251,400;  221,700;    0,000
330,858;   64,600;    7,600;    0,000
330,876;   92,300;  115,100;    0,000
330,893; -113,500; -116,700;    0,000
330,911;  546,900;  403,200;    0,000
330,928;    9,400;    0,300;    0,000
330,946;  158,100;  183,100;    0,000
330,963;  -94,300;  -75,700;    0,000
330,981;  253,400;  178,700;    0,000
330,998;  -41,800;  -34,900;    0,000
331,016;  411,000;  316,700;    0,000
331,033; -126,300; -123,900;    0,000
331,051;   -1,900;    2,700;    0,000
331,068;   24,100;  -39,200;    0,000
331,086;  270,300;  239,100;    0,000
331,103; -315,600; -223,400;    0,000
331,121;  371,700;  296,000;    0,000
331,138;   58,000;   17,100;    0,000
331,156;  -55,700;  -60,000;    0,000
331,173; -214,800; -184,900;    0,000
331,191;   71,700;   75,900;    0,000
331,208; -105,700;  -64,200;    0,000
331,226;  -38,400;  -32,400;    0,000
331,243; -278,100; -210,300;    0,000
331,261;  -11,500;   10,500;    0,000
331,278;  -78,100;  -69,300;    0,000
331,296;  141,800;  122,400;    0,000
331,313;   97,900;   61,900;    0,000
331,331;  -63,500;  -42,000;    0,000
331,348;   67,800;   41,000;    0,000
331,366;  339,900;  306,800;    0,000
331,383;   53,900;   55,100;    0,000
331,401;  580,000;  460,800;    0,000
331,418; -251,700; -195,100;    0,000
331,435;  266,400;  220,600;    0,000
331,453;   52,700;   31,000;    0,000
331,470;   -3,300;  -11,200;    0,000
331,488;  -81,700;  -47,800;    0,000
331,505;  401,700;  345,400;    0,000
331,523; -189,900; -183,300;    0,000
331,540;  -71,000;  -81,600;    0,000
331,558;  216,300;  136,600;    0,000
331,575;   85,600;   50,000;    0,000
331,592; -448,200; -351,300;    0,000
331,610;  -11,300;   13,100;    0,000
331,627; -131,600;  -98,100;    0,000
331,645;  250,500;  183,100;    0,000
331,662; -245,500; -188,000;    0,000
331,680;  -84,600;  -58,700;    0,000
331,697; -213,600; -175,300;    0,000
331,714;   72,300;   84,500;    0,000
331,732;   60,400;   54,500;    0,000
331,749;  237,300;  201,700;    0,000
331,767; -263,400; -255,200;    0,000
331,784;   10,500;   52,400;    0,000
331,801;  -33,800;   -8,600;    0,000
331,819;  148,800;  125,700;    0,000
331,836; -105,900;  -75,700;    0,000
331,854;  151,300;  134,900;    0,000
331,871;  112,900;   84,700;    0,000
331,888;  171,500;  153,000;    0,000
331,906; -197,200; -181,400;    0,000
331,923;   58,000;   42,400;    0,000
331,941;  -59,600;  -49,700;    0,000
331,958;   95,600;   40,300;    0,000
331,975;   73,800;   33,400;    0,000
331,993;  529,900;  429,300;    0,000
332,010; -160,000; -119,800;    0,000
332,027;   34,800;   56,400;    0,000
332,045;  -26,000;   -6,200;    0,000
332,062; -221,500; -120,200;    0,000
332,080;   47,500;   11,700;    0,000
332,097;  -52,100;  -33,100;    0,000
332,114;  -28,800;  -34,100;    0,000
332,132;  -45,800;  -15,200;    0,000
332,149; -253,900; -194,200;    0,000
332,166;  103,800;   88,900;    0,000
332,184; -106,500; -117,600;    0,000
332,201;  212,500;  159,500;    0,000
332,218;  -10,400;   11,400;    0,000
332,236;  180,200;  140,900;    0,000
332,253; -388,500; -273,900;    0,000
332,270;  -31,100;   -7,500;    0,000
332,288; -139,300; -155,600;    0,000
332,305;  165,800;  132,100;    0,000
332,322;  -36,500;  -43,600;    0,000
332,340;   19,700;   20,300;    0,000
332,357;  105,600;   60,700;    0,000
332,374;  473,200;  370,800;    0,000
332,392; -240,800; -180,400;    0,000
332,409;  154,100;  141,800;    0,000
332,426;   34,300;  -30,000;    0,000
332,444;   13,400;   -9,400;    0,000
332,461; -150,500; -100,800;    0,000
332,478; -148,600; -135,700;    0,000
332,496;  -48,300;  -68,000;    0,000
332,513;  167,600;  131,500;    0,000
332,530; -339,800; -273,800;    0,000
332,547; -116,500;  -56,800;    0,000
332,565; -247,100; -181,900;    0,000
332,582;  446,900;  366,300;    0,000
332,599;  -94,400;  -47,000;    0,000
332,617;  148,600;   86,300;    0,000
332,634;  -14,800;   -8,500;    0,000
332,651; -175,200; -115,900;    0,000
332,668; -178,900; -160,000;    0,000
332,686;  -53,600;  -70,400;    0,000
332,703;  277,200;  154,600;    0,000
332,720; -343,300; -253,500;    0,000
332,738; -149,600; -128,500;    0,000
332,755;  350,000;  272,600;    0,000
332,772;  266,900;  194,000;    0,000
332,789; -161,400; -121,100;    0,000
332,807;  133,100;  108,100;    0,000
332,824;   -4,100;  -17,600;    0,000
332,841;  150,200;  139,700;    0,000
332,858;  267,800;  211,900;    0,000
332,876; -155,500; -120,300;    0,000
332,893;   38,600;    9,100;    0,000
332,910;  633,600;  526,200;    0,000
332,927;  -33,700;   -6,000;    0,000
332,945;  165,500;  115,300;    0,000
332,962; -259,000; -207,900;    0,000
332,979; -139,700; -103,300;    0,000
332,996;   74,800;   93,800;    0,000
333,013;   -1,700;   18,100;    0,000
333,031; -132,300; -110,900;    0,000
333,048;  455,500;  360,200;    0,000
333,065;   22,100;   -4,900;    0,000
333,082; -130,200; -130,400;    0,000
333,100;   58,900;   30,300;    0,000
333,117; -127,600;  -79,000;    0,000
333,134;  102,100;   98,200;    0,000
333,151;  -74,800;  -78,200;    0,000
333,168;  359,700;  307,000;    0,000
333,186;  257,500;  181,400;    0,000
333,203;  -39,700;    7,000;    0,000
333,220;  214,400;  132,900;    0,000
333,237;   94,200;   58,400;    0,000
333,254;  112,000;  116,800;    0,000
333,272;  177,500;  165,200;    0,000
333,289; -308,400; -277,800;    0,000
333,306;  -98,900;  -78,900;    0,000
333,323; -532,300; -424,300;    0,000
333,340;  214,300;  206,100;    0,000
333,358; -222,600; -193,200;    0,000
333,375;   -5,400;   -9,500;    0,000
333,392; -322,900; -242,900;    0,000
333,409;  -61,100;  -73,800;    0,000
333,426;  114,700;   44,100;    0,000
333,443;  463,500;  375,000;    0,000
333,461;  267,500;  179,200;    0,000
333,478; -161,500; -113,900;    0,000
333,495; -203,500; -162,400;    0,000
333,512;  407,600;  286,000;    0,000
333,529;  -10,900;  -28,600;    0,000
333,546;  232,200;  162,200;    0,000
333,564;  -62,200;  -71,300;    0,000
333,581;  107,400;   92,400;    0,000
333,598; -367,700; -317,400;    0,000
333,615; -167,400;  -80,800;    0,000
333,632;  262,100;  213,700;    0,000
333,649;   77,200;   76,700;    0,000
333,666;  317,600;  227,700;    0,000
333,683;  297,200;  213,100;    0,000
333,701;   57,200;   -3,800;    0,000
333,718;  259,600;  212,700;    0,000
333,735;   67,700;   42,800;    0,000
333,752;  -67,400;  -54,200;    0,000
333,769;   56,400;    3,700;    0,000
333,786;    3,000;   10,200;    0,000
333,803; -256,300; -247,500;    0,000
333,820;   56,300;   40,300;    0,000
333,838; -335,800; -262,700;    0,000
333,855; -149,300; -122,200;    0,000
333,872;   35,400;    1,700;    0,000
333,889;  406,800;  303,800;    0,000
333,906;   43,400;   43,000;    0,000
333,923;  108,800;   85,600;    0,000
333,940;  232,000;  165,000;    0,000
333,957;  208,800;  146,200;    0,000
333,974;  185,500;  136,500;    0,000
333,991;  178,100;  122,100;    0,000
334,008;  411,900;  300,200;    0,000
334,026;  301,800;  201,100;    0,000
334,043; -268,400; -253,400;    0,000
334,060;  322,000;  288,000;    0,000
334,077;   97,800;  100,400;    0,000
334,094;  -40,700;  -25,000;    0,000
334,111;   72,500;   53,800;    0,000
334,128;  -15,900;    1,600;    0,000
334,145;  720,400;  581,300;    0,000
334,162;  106,600;  131,000;    0,000
334,179; -164,500; -118,200;    0,000
334,196;   39,000;   41,200;    0,000
334,213; -174,600; -122,000;    0,000
334,230;  321,300;  230,500;    0,000
334,247;  205,700;  104,500;    0,000
334,264;  158,700;  139,700;    0,000
334,281;   42,100;    4,900;    0,000
334,298;  114,100;   97,100;    0,000
334,316;  -20,400;  -21,100;    0,000
334,333;  -85,900;  -64,200;    0,000
334,350;   19,100;  -29,600;    0,000
334,367;  -45,400;  -45,900;    0,000
334,384; -101,700;  -90,500;    0,000
334,401;    6,800;  -39,200;    0,000
334,418; -343,900; -306,000;    0,000
334,435;  190,400;  152,200;    0,000
334,452;   83,400;   88,200;    0,000
334,469;  256,600;  218,400;    0,000
334,486;   11,900;  -10,100;    0,000
334,503;  263,600;  181,400;    0,000
334,520;  -79,300;  -89,000;    0,000
334,537;  482,000;  376,000;    0,000
334,554; -108,600;  -99,900;    0,000
334,571;  207,900;  171,300;    0,000
334,588; -183,000; -172,500;    0,000
334,605;  -59,100;  -20,300;    0,000
334,622;   45,900;   26,600;    0,000
334,639;  287,000;  244,700;    0,000
334,656; -281,000; -241,700;    0,000
334,673;  464,900;  370,200;    0,000
334,690;  -46,500;  -29,300;    0,000
334,707;  -40,100;  -39,900;    0,000
334,724;   34,200;   11,600;    0,000
334,741; -248,100; -196,200;    0,000
334,758; -142,000; -102,400;    0,000
334,775;    8,400;    7,200;    0,000
334,792; -136,300; -101,200;    0,000
334,809;  295,800;  236,300;    0,000
334,826;   55,000;   42,700;    0,000
334,842;  120,000;  108,400;    0,000
334,859;  148,300;  152,800;    0,000
334,876;  365,100;  320,800;    0,000
334,893;  -21,100;  -16,100;    0,000
334,910;  -32,600;  -41,100;    0,000
334,927;  124,400;   27,000;    0,000
334,944;  190,700;  128,900;    0,000
334,961; -189,200; -125,000;    0,000
334,978;  292,800;  252,200;    0,000
334,995;  -21,200;  -44,800;    0,000
335,012;   19,500;   21,200;    0,000
335,029;  -25,900;   -4,900;    0,000
335,046; -232,100; -174,800;    0,000
335,063;  462,700;  339,500;    0,000
335,080;  259,000;  204,000;    0,000
335,097; -319,100; -286,700;    0,000
335,113;  -16,100;   -4,300;    0,000
335,130; -125,100;  -76,200;    0,000
335,147;  588,300;  477,600;    0,000
335,164; -181,800; -146,100;    0,000
335,181;   -1,900;   -1,700;    0,000
335,198; -407,000; -333,000;    0,000
335,215;   96,800;   53,000;    0,000
335,232;  240,300;  164,200;    0,000
335,249;  176,000;  134,100;    0,000
335,266;   36,100;   39,600;    0,000
335,283;  -43,000;  -23,300;    0,000
335,299;  287,300;  216,700;    0,000
335,316;   16,900;    3,200;    0,000
335,333; -340,400; -273,600;    0,000
335,350;  344,100;  260,800;    0,000
335,367;  142,900;  141,400;    0,000
335,384;   -3,200;    8,800;    0,000
335,401; -431,300; -339,400;    0,000
335,418;  225,800;  188,200;    0,000
335,434; -204,600; -183,600;    0,000
335,451;  235,200;  177,900;    0,000
335,468;   22,800;   22,800;    0,000
335,485;  105,700;   71,400;    0,000
335,502; -139,700; -130,900;    0,000
335,519;  -62,300;  -20,900;    0,000
335,536;  222,300;  155,500;    0,000
335,552;  314,100;  273,500;    0,000
335,569;  -47,700;   -2,900;    0,000
335,586;  -51,500;  -36,300;    0,000
335,603;   -1,200;    1,800;    0,000
335,620;  -56,900;   -9,900;    0,000
335,637;  285,900;  209,500;    0,000
335,654; -106,600;  -61,700;    0,000
335,670;  -32,300;  -25,300;    0,000
335,687;  -49,900;  -22,800;    0,000
335,704;  -87,000;  -56,800;    0,000
335,721;  104,100;   72,900;    0,000
335,738;   12,200;   -3,700;    0,000
335,755; -111,700; -101,000;    0,000
335,771; -222,200; -191,500;    0,000
335,788; -105,600; -106,800;    0,000
335,805; -139,200;  -93,500;    0,000
335,822;   17,600;   23,500;    0,000
335,839; -394,400; -312,100;    0,000
335,855; -308,600; -236,600;    0,000
335,872; -260,300; -206,500;    0,000
335,889;  179,000;  128,300;    0,000
335,906;   60,000;   24,600;    0,000
335,923;  -62,500;  -51,800;    0,000
335,939; -317,600; -243,100;    0,000
335,956;  215,300;  191,600;    0,000
335,973;  144,500;  114,000;    0,000
335,990; 1545,700; 1255,200;    0,000
336,007; -161,400; -113,900;    0,000
336,023;  402,700;  358,300;    0,000
336,040;  -86,800;  -32,700;    0,000
336,057;  172,100;  110,500;    0,000
336,074;  -80,200;  -77,400;    0,000
336,090;  250,300;  186,000;    0,000
336,107;  -96,500;  -87,000;    0,000
336,124; -240,000; -186,800;    0,000
336,141;    9,300;  -27,300;    0,000
336,158;  204,500;  156,900;    0,000
336,174;    5,700;  -26,800;    0,000
336,191;   18,500;   45,000;    0,000
336,208; -187,800; -159,800;    0,000
336,225;  388,900;  348,500;    0,000
336,241;    8,500;  -49,700;    0,000
336,258;  555,300;  492,400;    0,000
336,275; -407,200; -295,700;    0,000
336,292;  -77,300;  -57,900;    0,000
336,308; -361,800; -283,700;    0,000
336,325;  129,200;  140,400;    0,000
336,342;  -49,400;  -43,700;    0,000
336,358;  258,800;  216,300;    0,000
336,375;   35,500;   26,000;    0,000
336,392; -185,900; -115,900;    0,000
336,409; -330,300; -279,600;    0,000
336,425;  353,600;  296,200;    0,000
336,442;  -49,100;  -31,000;    0,000
336,459;  -34,200;   -5,700;    0,000
336,476;  172,000;  115,600;    0,000
336,492;  153,100;  147,400;    0,000
336,509;   14,400;   -9,600;    0,000
336,526;  123,900;  108,900;    0,000
336,542; -125,300; -105,500;    0,000
336,559;  131,700;   75,500;    0,000
336,576; -269,100; -211,800;    0,000
336,592;  191,700;  147,900;    0,000
336,609;   -4,400;   18,600;    0,000
336,626;  231,800;  176,200;    0,000
336,643;   46,700;    1,700;    0,000
336,659;   87,900;   41,400;    0,000
336,676;   -2,900;  -27,000;    0,000
336,693;  449,300;  358,700;    0,000
336,709;  -44,500;  -30,100;    0,000
336,726;  164,900;  130,400;    0,000
336,743;  -97,100;  -84,500;    0,000
336,759;  -46,200;  -45,600;    0,000
336,776; -246,300; -190,000;    0,000
336,793;  -51,800;  -53,600;    0,000
336,809; -218,400; -179,400;    0,000
336,826;   -2,800;   21,900;    0,000
336,843;   -0,600;   -4,100;    0,000
336,859;   73,300;   89,200;    0,000
336,876; -144,800; -169,600;    0,000
336,893; -189,000; -148,500;    0,000
336,909; -138,600;  -99,000;    0,000
336,926;  431,600;  316,700;    0,000
336,942;  189,800;  109,800;    0,000
336,959;  371,900;  324,400;    0,000
336,976;   69,300;   38,000;    0,000
336,992;  -40,400;  -31,600;    0,000
337,009;   -9,600;  -12,300;    0,000
337,026;  121,800;   95,800;    0,000
337,042;  -97,500; -109,100;    0,000
337,059;   33,300;   53,400;    0,000
337,076;  128,200;  114,200;    0,000
337,092; -189,500; -125,000;    0,000
337,109;    3,400;  -55,300;    0,000
337,125;  193,400;  141,500;    0,000
337,142; -195,000; -164,100;    0,000
337,159;  219,400;  187,300;    0,000
337,175;  225,600;  173,900;    0,000
337,192;  238,000;  170,100;    0,000
337,208;  238,600;  193,200;    0,000
337,225;  411,400;  350,200;    0,000
337,242; -208,200; -169,000;    0,000
337,258;   38,700;   31,800;    0,000
337,275;  -58,300;  -27,300;    0,000
337,291; -149,300; -105,100;    0,000
337,308; -216,800; -184,400;    0,000
337,325;  298,400;  234,200;    0,000
337,341;  -50,100;  -51,000;    0,000
337,358;   91,900;   76,200;    0,000
337,374;  224,300;  197,200;    0,000
337,391;  233,600;  204,600;    0,000
337,407;    3,700;  -29,400;    0,000
337,424; -127,000;  -89,700;    0,000
337,441;  138,600;  122,300;    0,000
337,457;   59,500;   46,300;    0,000
337,474;  -17,700;  -33,200;    0,000
337,490;  -46,100;   -1,300;    0,000
337,507; -390,100; -314,000;    0,000
337,523;  240,900;  193,800;    0,000
337,540; -318,600; -245,300;    0,000
337,556;  159,100;  178,800;    0,000
337,573;  -55,600;  -42,400;    0,000
337,590; -200,300; -140,900;    0,000
337,606; -113,400;  -91,000;    0,000
337,623;   62,600;   58,200;    0,000
337,639; -164,700; -121,000;    0,000
337,656; -248,600; -170,500;    0,000
337,672;   13,100;  -28,700;    0,000
337,689;  273,200;  212,900;    0,000
337,705; -164,800; -143,600;    0,000
337,722;  421,800;  331,000;    0,000
337,738;  132,300;   84,300;    0,000
337,755; -115,600; -100,200;    0,000
337,771;  -24,200;  -15,700;    0,000
337,788;   27,200;   25,300;    0,000
337,804;   81,200;   33,800;    0,000
337,821;  274,500;  211,100;    0,000
337,837; -146,300;  -90,200;    0,000
337,854;  127,400;  112,000;    0,000
337,870; -334,200; -280,000;    0,000
337,887;  137,700;  100,600;    0,000
337,903; -201,900; -169,300;    0,000
337,920;  162,300;  134,800;    0,000
337,936; -321,500; -263,100;    0,000
337,953;  205,200;  182,800;    0,000
337,969;  135,100;   92,700;    0,000
337,986;  266,700;  221,400;    0,000
338,002; -230,000; -199,600;    0,000
338,019;  109,900;   99,700;    0,000
338,035;  -62,700;  -37,000;    0,000
338,052; -198,800; -138,100;    0,000
338,068;  506,000;  377,800;    0,000
338,085;  137,400;   98,500;    0,000
338,101; -414,700; -325,900;    0,000
338,118;  -51,700;  -15,000;    0,000
338,134;  362,400;  287,200;    0,000
338,151;  127,600;  101,600;    0,000
338,167; -336,400; -277,500;    0,000
338,183;  247,200;  191,800;    0,000
338,200;   49,500;   36,600;    0,000
338,216;  -20,700;   16,800;    0,000
338,233;  -99,300;  -65,600;    0,000
338,249;  182,500;  145,600;    0,000
338,266;  -27,700;   -8,800;    0,000
338,282;  158,000;  154,400;    0,000
338,298;   18,200;   21,800;    0,000
338,315;  147,200;  139,700;    0,000
338,331; -455,000; -329,800;    0,000
338,348;   -0,100;    6,100;    0,000
338,364; -393,800; -306,300;    0,000
338,381;   -9,500;   -8,400;    0,000
338,397; -494,400; -381,500;    0,000
338,413;  151,700;  124,100;    0,000
338,430; -173,300; -127,800;    0,000
338,446;  -44,600;   -6,300;    0,000
338,463; -387,700; -298,700;    0,000
338,479;  132,800;  100,800;    0,000
338,495; -119,000; -124,000;    0,000
338,512;   88,000;   74,700;    0,000
338,528; -211,100; -178,000;    0,000
338,545;  154,900;  100,600;    0,000
338,561;  156,300;  114,100;    0,000
338,577;   61,000;   43,300;    0,000
338,594; -128,100; -111,300;    0,000
338,610;  134,700;  137,800;    0,000
338,627; -218,800; -179,300;    0,000
338,643;  -63,800;  -33,400;    0,000
338,659;  273,500;  188,500;    0,000
338,676;   40,200;   38,500;    0,000
338,692;  146,600;  118,300;    0,000
338,708; -196,800; -149,500;    0,000
338,725; -521,600; -389,100;    0,000
338,741;  290,600;  268,400;    0,000
338,758;   31,300;   15,500;    0,000
338,774;  -48,600;  -36,800;    0,000
338,790; -108,600; -124,900;    0,000
338,807;  246,700;  223,000;    0,000
338,823; -268,200; -215,500;    0,000
338,839;   -4,800;   -6,600;    0,000
338,856; -228,400; -160,800;    0,000
338,872;  582,800;  491,600;    0,000
338,888; -238,500; -207,700;    0,000
338,905;   68,200;   38,000;    0,000
338,921;   31,500;  -26,500;    0,000
338,937;  -87,800;  -63,300;    0,000
338,954;  311,000;  259,200;    0,000
338,970;  147,900;  117,100;    0,000
338,986; -283,800; -215,900;    0,000
339,003;  142,800;  147,900;    0,000
339,019; -168,400; -126,200;    0,000
339,035;  185,500;  132,000;    0,000
339,052;  -18,400;  -59,800;    0,000
339,068; -139,200; -108,600;    0,000
339,084;   -0,400;   19,900;    0,000
339,101;  333,100;  244,100;    0,000
339,117; -203,300; -182,900;    0,000
339,133;  271,100;  240,700;    0,000
339,149; -415,200; -315,800;    0,000
339,166;   71,900;   46,500;    0,000
339,182; -389,800; -304,400;    0,000
339,198;   81,700;   61,100;    0,000
339,215; -188,100; -157,100;    0,000
339,231;  434,500;  321,500;    0,000
339,247; -198,100; -171,400;    0,000
339,263;  178,300;  122,200;    0,000
339,280;  393,300;  315,800;    0,000
339,296;  -52,000;  -55,200;    0,000
339,312;  -85,600;  -74,300;    0,000
339,329; -116,500;  -79,000;    0,000
339,345;   12,400;   25,700;    0,000
339,361;  -95,500;  -54,700;    0,000
339,377;   -5,700;  -26,400;    0,000
339,394;  231,400;  212,700;    0,000
339,410;  -59,400;  -37,800;    0,000
339,426;   -4,100;  -12,800;    0,000
339,442; -158,300; -131,800;    0,000
339,459;  172,000;  138,500;    0,000
339,475; -192,700; -153,600;    0,000
339,491;   62,800;   41,600;    0,000
339,507;   23,500;  -24,800;    0,000
339,524;   33,900;   45,400;    0,000
339,540; -201,100; -167,200;    0,000
339,556;  -89,000; -105,300;    0,000
339,572; -163,000; -113,700;    0,000
339,589;   -1,000;   21,300;    0,000
339,605;  318,400;  283,600;    0,000
339,621;  205,900;  181,700;    0,000
339,637;  -12,600;    4,400;    0,000
339,654;  135,400;  118,800;    0,000
339,670;  284,300;  239,600;    0,000
339,686;   29,300;   17,200;    0,000
339,702; -389,400; -300,800;    0,000
339,718;  249,800;  226,000;    0,000
339,735;  124,000;   97,900;    0,000
339,751;  165,900;  143,400;    0,000
339,767; -190,300; -162,000;    0,000
339,783;    4,700;  -17,600;    0,000
339,799; -171,700; -152,800;    0,000
339,816;  -25,900;  -29,300;    0,000
339,832;   81,400;   66,900;    0,000
339,848;   18,800;   24,200;    0,000
339,864;   76,100;   43,800;    0,000
339,880;  111,900;   68,000;    0,000
339,896;  -57,300;  -50,100;    0,000
339,913; -137,800;  -93,900;    0,000
339,929; -190,300; -157,000;    0,000
339,945;  295,400;  217,300;    0,000
339,961;  400,800;  300,600;    0,000
339,977;   10,000;   24,800;    0,000
339,993; -156,000; -138,000;    0,000
340,010;  160,300;  151,200;    0,000
340,026; -301,200; -222,200;    0,000
340,042;  105,200;   73,400;    0,000
340,058; -232,400; -194,900;    0,000
340,074;  117,200;   76,600;    0,000
340,090; -149,700; -134,200;    0,000
340,107;   52,400;   29,600;    0,000
340,123;  134,700;   66,900;    0,000
340,139;  171,600;  142,100;    0,000
340,155; -335,400; -259,500;    0,000
340,171;  213,100;  168,100;    0,000
340,187;  104,500;   46,600;    0,000
340,203;  455,000;  329,000;    0,000
340,220; -367,000; -307,200;    0,000
340,236;  413,600;  335,700;    0,000
340,252;  -33,700;  -55,200;    0,000
340,268;  219,200;  165,100;    0,000
340,284;  -22,200;  -33,900;    0,000
340,300;  358,600;  284,400;    0,000
340,316;   76,200;   44,400;    0,000
340,332;  234,400;  196,000;    0,000
340,349;  -78,800;  -64,800;    0,000
340,365;  841,000;  783,200;    0,000
340,381;   57,800;   61,500;    0,000
340,397; -102,100; -117,200;    0,000
340,413;  -54,900;  -81,600;    0,000
340,429;  -34,500;  -58,400;    0,000
340,445;  173,300;  129,500;    0,000
340,461;  415,900;  330,300;    0,000
340,477;   -3,100;  -27,200;    0,000
340,493; -158,800;  -93,500;    0,000
340,509; -223,000; -122,800;    0,000
340,526;  210,300;  194,600;    0,000
340,542;  -94,300;  -94,200;    0,000
340,558;  161,300;  179,100;    0,000
340,574;  -88,300;  -72,800;    0,000
340,590;  192,600;  123,900;    0,000
340,606; -213,700; -157,700;    0,000
340,622;   82,300;   70,500;    0,000
340,638; -131,400;  -74,700;    0,000
340,654;  182,600;  161,400;    0,000
340,670; -211,800; -151,000;    0,000
340,686; -209,900; -126,900;    0,000
340,702;  -61,600;  -47,300;    0,000
340,718;   -7,100;    0,000;    0,000
340,734;  140,400;  101,400;    0,000
340,750;   72,200;   89,000;    0,000
340,766; -171,900; -149,300;    0,000
340,782;  -53,200;  -26,700;    0,000
340,798;    4,200;  -21,000;    0,000
340,815;  353,700;  286,700;    0,000
340,831;  106,800;   89,700;    0,000
340,847;  155,000;  139,000;    0,000
340,863;  -68,500;  -59,200;    0,000
340,879;    7,300;   12,200;    0,000
340,895;    9,100;   22,000;    0,000
340,911;  142,000;  141,300;    0,000
340,927;  239,000;  154,500;    0,000
340,943;  -77,400;  -58,300;    0,000
340,959; -204,600; -151,700;    0,000
340,975;  239,700;  139,700;    0,000
340,991;   -6,000;   -9,700;    0,000
341,007;  115,200;  129,500;    0,000
341,023;  107,500;   95,200;    0,000
341,039; -120,800; -115,600;    0,000
341,055; -304,800; -240,600;    0,000
341,071;   78,200;   85,800;    0,000
341,087;   44,900;   18,800;    0,000
341,103;  281,700;  221,500;    0,000
341,119;  147,800;  108,000;    0,000
341,135;  135,100;   88,900;    0,000
341,151;   57,200;   24,100;    0,000
341,167;  387,100;  292,400;    0,000
341,183;  -58,000;  -57,700;    0,000
341,199;   46,500;   49,800;    0,000
341,215;   15,000;   32,800;    0,000
341,230;  343,600;  253,900;    0,000
341,246; -218,900; -166,900;    0,000
341,262;  680,200;  630,300;    0,000
341,278;  -58,300;  -33,600;    0,000
341,294;  186,800;  155,700;    0,000
341,310;   13,000;   30,300;    0,000
341,326;  126,000;  118,000;    0,000
341,342;  236,800;  249,100;    0,000
341,358;  181,700;  145,000;    0,000
341,374; -364,200; -308,600;    0,000
341,390;  271,900;  190,300;    0,000
341,406;   43,800;   62,600;    0,000
341,422;  147,400;  118,000;    0,000
341,438; -233,900; -186,700;    0,000
341,454;  391,800;  350,100;    0,000
341,470;  102,000;  118,100;    0,000
341,486;   10,300;   20,700;    0,000
341,502; -317,900; -263,700;    0,000
341,517;  331,200;  287,800;    0,000
341,533;   31,700;   30,500;    0,000
341,549;  204,800;  158,100;    0,000
341,565;   37,300;   -0,900;    0,000
341,581;  257,900;  196,000;    0,000
341,597;  144,800;  140,200;    0,000
341,613;  -95,300;  -90,500;    0,000
341,629; -221,300; -186,800;    0,000
341,645;   57,600;   60,200;    0,000
341,661;  -50,000;  -25,500;    0,000
341,676;  -32,400;  -64,400;    0,000
341,692; -280,600; -213,900;    0,000
341,708;  321,400;  277,300;    0,000
341,724;   81,000;   69,900;    0,000
341,740; -117,400; -104,400;    0,000
341,756; -153,100; -116,300;    0,000
341,772;  388,300;  339,000;    0,000
341,788;  267,000;  214,700;    0,000
341,804;  190,900;  132,100;    0,000
341,819;  -16,600;  -40,000;    0,000
341,835;  121,500;  102,400;    0,000
341,851;  -92,300;  -78,500;    0,000
341,867;   44,300;   50,100;    0,000
341,883; -189,600; -139,500;    0,000
341,899;  344,600;  284,200;    0,000
341,915;  -33,500;  -16,600;    0,000
341,930;  195,700;  149,100;    0,000
341,946;  434,200;  313,400;    0,000
341,962;  218,700;  168,000;    0,000
341,978; -202,000; -154,900;    0,000
341,994;  275,300;  196,600;    0,000
342,010;  -36,900;  -38,700;    0,000
342,025;  -20,200;  -25,600;    0,000
342,041;  161,400;  114,600;    0,000
342,057;   65,500;   63,200;    0,000
342,073; -213,200; -145,800;    0,000
342,089;  -25,700;    8,500;    0,000
342,105;   45,700;   71,300;    0,000
342,120;  125,000;  127,500;    0,000
342,136;  166,600;   94,400;    0,000
342,152;  -21,500;   -8,000;    0,000
342,168; -209,900; -151,900;    0,000
342,184;    5,400;  -45,300;    0,000
342,200;  230,000;  180,100;    0,000
342,215;  104,000;   82,300;    0,000
342,231;  216,100;  179,400;    0,000
342,247; -145,400; -106,100;    0,000
342,263;   65,800;   79,000;    0,000
342,279;  208,600;  186,800;    0,000
342,294; -389,400; -327,300;    0,000
342,310;  257,900;  203,600;    0,000
342,326;  -39,500;  -58,300;    0,000
342,342; -222,600; -145,200;    0,000
342,357; -152,000; -165,400;    0,000
342,373;  108,900;   36,700;    0,000
342,389; -318,500; -259,900;    0,000
342,405;   -2,900;    6,700;    0,000
342,421;   -3,600;  -34,100;    0,000
342,436;  -74,800;  -45,900;    0,000
342,452;  326,800;  266,200;    0,000
342,468; -172,900; -125,900;    0,000
342,484; -290,900; -229,200;    0,000
342,499; -159,500; -118,100;    0,000
342,515; -206,100; -143,900;    0,000
342,531;  285,100;  253,100;    0,000
342,547; -208,700; -185,600;    0,000
342,562;  167,200;  162,000;    0,000
342,578; -237,100; -191,000;    0,000
342,594;  -21,900;    3,800;    0,000
342,610; -215,400; -184,400;    0,000
342,625;  200,800;  144,800;    0,000
342,641; -252,600; -220,100;    0,000
342,657;   98,400;   84,000;    0,000
342,673;  309,700;  223,600;    0,000
342,688; -174,900;  -92,500;    0,000
342,704;  120,700;  118,300;    0,000
342,720;  179,500;  128,600;    0,000
342,735;  -37,500;  -33,600;    0,000
342,751;  227,200;  142,700;    0,000
342,767;  294,300;  245,100;    0,000
342,783;  281,000;  278,800;    0,000
342,798; -284,500; -264,400;    0,000
342,814;    3,000;   25,400;    0,000
342,830;  -53,500;  -44,400;    0,000
342,845;   91,000;   73,100;    0,000
342,861; -107,000; -114,500;    0,000
342,877;  150,100;   93,900;    0,000
342,892;  126,400;   92,800;    0,000
342,908;   25,800;   21,900;    0,000
342,924;  274,000;  213,600;    0,000
342,940;   26,900;   15,400;    0,000
342,955; -249,600; -208,700;    0,000
342,971;   10,200;   35,800;    0,000
342,987;  206,100;  156,800;    0,000
343,002;  409,100;  322,800;    0,000
343,018;  -19,700;   13,300;    0,000
343,034;   36,000;   46,600;    0,000
343,049;   52,700;   61,600;    0,000
343,065;  107,500;   83,200;    0,000
343,081;  105,400;   37,200;    0,000
343,096;  -55,000;  -37,600;    0,000
343,112; -209,200; -184,200;    0,000
343,128;  112,000;   82,200;    0,000
343,143; -188,900; -190,400;    0,000
343,159; -135,600; -101,700;    0,000
343,174;  -64,300;  -44,100;    0,000
343,190;   -8,600;   10,700;    0,000
343,206; -187,400; -165,800;    0,000
343,221;  252,500;  229,300;    0,000
343,237; -221,600; -188,400;    0,000
343,253; -217,900; -194,200;    0,000
343,268;  170,100;  111,600;    0,000
343,284;   38,600;    5,800;    0,000
343,300; -213,000; -222,900;    0,000
343,315;  -22,300;   34,600;    0,000
343,331; -320,000; -281,700;    0,000
343,346;  399,600;  344,500;    0,000
343,362; -109,900; -107,200;    0,000
343,378;  405,800;  297,800;    0,000
343,393; -311,600; -254,300;    0,000
343,409;  -97,500;  -89,900;    0,000
343,424; -294,800; -229,700;    0,000
343,440; -254,000; -211,400;    0,000
343,456; -202,900; -177,700;    0,000
343,471;   42,100;   25,200;    0,000
343,487;  -63,900;  -58,500;    0,000
343,502;  -67,500;  -64,300;    0,000
343,518;  106,500;   97,600;    0,000
343,534;  239,800;  205,700;    0,000
343,549; -251,600; -179,400;    0,000
343,565;  156,100;  134,400;    0,000
343,580; -418,400; -335,200;    0,000
343,596;  176,800;  139,200;    0,000
343,611;  -96,600;  -77,200;    0,000
343,627;   19,300;   15,000;    0,000
343,643; -231,900; -185,400;    0,000
343,658;  219,900;  164,000;    0,000
343,674;  176,600;  204,200;    0,000
343,689;  109,700;   99,000;    0,000
343,705;   17,000;   -7,500;    0,000
343,720; -159,300; -128,700;    0,000
343,736; -160,200; -137,900;    0,000
343,751;  -51,900;  -63,900;    0,000
343,767;   30,200;   23,200;    0,000
343,783;   89,100;   85,300;    0,000
343,798;   -2,400;  -17,100;    0,000
343,814;   69,000;   24,900;    0,000
343,829; -132,700; -108,000;    0,000
343,845;  108,300;   97,600;    0,000
343,860;  -96,200;  -60,300;    0,000
343,876;  113,200;   80,800;    0,000
343,891;  -24,700;  -41,600;    0,000
343,907;   94,500;   68,000;    0,000
343,922; -266,000; -209,000;    0,000
343,938;  203,300;  127,000;    0,000
343,953;    5,100;   -3,900;    0,000
343,969;  229,800;  210,800;    0,000
343,984; -412,100; -313,700;    0,000
344,000;  174,400;  109,800;    0,000
344,015; -255,300; -165,900;    0,000
344,031; -125,500;  -83,400;    0,000
344,046;  -39,500;   -8,800;    0,000
344,062;  310,800;  224,100;    0,000
344,077;  -85,700;  -81,600;    0,000
344,093;   27,800;   20,600;    0,000
344,108; -165,100; -209,000;    0,000
344,124;  -76,200;  -56,800;    0,000
344,139;   21,100;   10,100;    0,000
344,155;  -84,500;  -85,300;    0,000
344,170; -114,600; -126,200;    0,000
344,186;  274,800;  202,700;    0,000
344,201;   29,800;   35,300;    0,000
344,217;  -75,400;  -73,800;    0,000
344,232; -130,400;  -77,700;    0,000
344,248; -154,600;  -96,100;    0,000
344,263;  317,200;  253,500;    0,000
344,279;   93,900;  104,800;    0,000
344,294; -251,000; -215,400;    0,000
344,309;   21,900;   39,400;    0,000
344,325;  -87,400;  -95,000;    0,000
344,340;   22,000;   28,100;    0,000
344,356; -141,100; -143,600;    0,000
344,371;  224,500;  195,900;    0,000
344,387; -313,700; -253,300;    0,000
344,402;  150,400;  173,600;    0,000
344,418;  144,800;  131,500;    0,000
344,433;  150,600;   93,400;    0,000
344,448;    6,700;   25,000;    0,000
344,464;  425,200;  382,200;    0,000
344,479;  155,500;  120,000;    0,000
344,495;  221,700;  181,900;    0,000
344,510;   48,000;   45,500;    0,000
344,526;  -10,600;  -12,600;    0,000
344,541;  390,100;  390,100;    0,000
344,556;  217,300;  168,400;    0,000
344,572;   39,800;   -9,900;    0,000
344,587;  208,300;  164,600;    0,000
344,603;  125,000;   94,400;    0,000
344,618;   99,200;   59,300;    0,000
344,633;  325,400;  248,800;    0,000
344,649;  -25,200;  -20,900;    0,000
344,664;   12,300;   24,500;    0,000
344,680;  155,700;  109,700;    0,000
344,695;  -56,800;  -37,700;    0,000
344,710;   28,200;   37,300;    0,000
344,726;  -16,700;   -4,500;    0,000
344,741;   20,000;    7,200;    0,000
344,756;    8,100;  -42,300;    0,000
344,772;   68,600;   75,700;    0,000
344,787;  374,100;  329,300;    0,000
344,803; -123,900;  -75,700;    0,000
344,818;  -25,900;  -15,300;    0,000
344,833;  -85,100;  -55,900;    0,000
344,849; -261,600; -199,000;    0,000
344,864;    9,800;   -9,000;    0,000
344,879;   59,200;   26,300;    0,000
344,895;  163,200;  150,500;    0,000
344,910;   89,200;   99,200;    0,000
344,925; -134,700; -110,500;    0,000
344,941; -314,500; -251,300;    0,000
344,956;   70,300;   65,200;    0,000
344,971;  -52,100;  -30,700;    0,000
344,987;  323,500;  223,900;    0,000
345,002;   97,900;   31,700;    0,000
345,017; -228,800; -172,300;    0,000
345,033;  -35,800;  -21,100;    0,000
345,048;  151,400;   86,000;    0,000
345,063;  -61,000;  -30,500;    0,000
345,079;  344,100;  291,700;    0,000
345,094; -112,100; -101,900;    0,000
345,109;  365,800;  293,600;    0,000
345,125;  196,100;  121,000;    0,000
345,140;   54,700;   55,800;    0,000
345,155; -180,900; -148,900;    0,000
345,171;  128,700;   84,800;    0,000
345,186; -251,900; -174,400;    0,000
345,201; -151,400; -128,900;    0,000
345,217;  170,500;  140,100;    0,000
345,232;  177,900;  141,500;    0,000
345,247;    8,400;    3,100;    0,000
345,262;  320,600;  250,600;    0,000
345,278; -258,300; -232,100;    0,000
345,293;  399,000;  305,400;    0,000
345,308; -188,600; -123,300;    0,000
345,324;  292,100;  286,600;    0,000
345,339;   39,200;   48,800;    0,000
345,354;  287,600;  185,800;    0,000
345,369; -255,500; -219,700;    0,000
345,385;  293,600;  291,300;    0,000
345,400;  135,200;   86,500;    0,000
345,415;   53,400;   57,000;    0,000
345,430; -255,100; -218,600;    0,000
345,446;  142,100;  122,300;    0,000
345,461;  -19,800;  -20,600;    0,000
345,476;  222,100;  169,700;    0,000
345,491;   13,500;   -3,200;    0,000
345,507;  419,900;  381,000;    0,000
345,522;   79,000;   75,900;    0,000
345,537;   75,000;   53,000;    0,000
345,552;   96,200;   77,400;    0,000
345,568;  341,700;  296,900;    0,000
345,583;  132,600;  122,700;    0,000
345,598;  127,400;  114,500;    0,000
345,613;  -14,800;  -60,100;    0,000
345,629;  242,300;  201,900;    0,000
345,644;  -80,600;  -58,600;    0,000
345,659;  194,700;  178,100;    0,000
345,674;  -96,000; -109,300;    0,000
345,689; -212,300; -155,100;    0,000
345,705;  -93,200;  -84,600;    0,000
345,720;  222,500;  121,500;    0,000
345,735;   34,400;   25,400;    0,000
345,750;  275,400;  239,500;    0,000
345,766;  220,700;  185,800;    0,000
345,781; -141,600; -101,000;    0,000
345,796; 1740,000; 1360,300;    0,000
345,811; -127,100;  -94,900;    0,000
345,826; -223,600; -174,600;    0,000
345,841; -145,800;  -86,800;    0,000
345,857;   53,700;   26,700;    0,000
345,872;  117,000;   87,400;    0,000
345,887; -174,300; -136,300;    0,000
345,902;    7,200;   -6,800;    0,000
345,917; -139,600; -118,000;    0,000
345,933;  213,100;  187,700;    0,000
345,948;  -96,900;  -72,900;    0,000
345,963; -109,800;  -80,000;    0,000
345,978;   99,600;   60,600;    0,000
345,993;   92,600;   33,800;    0,000
346,008;   -5,300;  -12,100;    0,000
346,024;  -98,400;  -94,300;    0,000
346,039; -214,500; -184,800;    0,000
346,054;  -47,600;  -24,000;    0,000
346,069;  -65,700;  -80,200;    0,000
346,084;  -67,300;  -53,700;    0,000
346,099; -238,000; -136,400;    0,000
346,114;    8,100;   28,400;    0,000
346,130; -272,000; -211,100;    0,000
346,145; -130,300;  -79,700;    0,000
346,160; -234,400; -176,300;    0,000
346,175;  269,900;  217,500;    0,000
346,190; -133,200;  -76,900;    0,000
346,205;  125,100;   91,200;    0,000
346,220; -167,300; -124,000;    0,000
346,235;  -51,800;  -54,500;    0,000
346,251; -220,400; -182,900;    0,000
346,266;  330,500;  254,600;    0,000
346,281;  -75,700;  -76,400;    0,000
346,296;   84,300;   63,600;    0,000
346,311; -144,700; -133,200;    0,000
346,326;   78,000;   87,900;    0,000
346,341;  -37,700;  -20,400;    0,000
346,356;   78,700;   88,100;    0,000
346,371;  -91,700;  -98,100;    0,000
346,387;   10,000;   -3,500;    0,000
346,402; -207,300; -176,600;    0,000
346,417;  158,300;  109,500;    0,000
346,432;   -3,000;   16,700;    0,000
346,447; -216,300; -200,000;    0,000
346,462;  445,700;  331,700;    0,000
346,477;   10,400;  -11,500;    0,000
346,492;   41,900;   58,400;    0,000
346,507;  263,400;  191,000;    0,000
346,522;   78,300;   18,700;    0,000
346,537;  -32,200;  -31,100;    0,000
346,552;   37,800;  -17,000;    0,000
346,567;  775,300;  593,400;    0,000
346,582;  350,900;  256,200;    0,000
346,598;  255,500;  224,000;    0,000
346,613;  184,500;  146,400;    0,000
346,628;  -56,600;  -60,500;    0,000
346,643; -128,600; -138,100;    0,000
346,658;  212,000;  154,900;    0,000
346,673;  298,200;  225,100;    0,000
346,688;   23,100;   -3,500;    0,000
346,703;  -81,500;  -85,100;    0,000
346,718;   67,400;   27,300;    0,000
346,733;  332,400;  307,800;    0,000
346,748;  189,900;  123,600;    0,000
346,763;   63,200;   23,700;    0,000
346,778; -176,100; -102,800;    0,000
346,793;  -83,200;  -88,100;    0,000
346,808;  293,900;  211,000;    0,000
346,823;   46,000;   29,500;    0,000
346,838;   50,600;   47,100;    0,000
346,853;  -17,100;  -14,300;    0,000
346,868;   80,600;   53,900;    0,000
346,883;  -13,200;  -49,700;    0,000
346,898; -154,500; -147,700;    0,000
346,913; -146,500; -127,600;    0,000
346,928;  -33,000;  -10,600;    0,000
346,943;  208,600;  143,900;    0,000
346,958;  278,200;  232,500;    0,000
346,973; -275,100; -222,000;    0,000
346,988;  334,400;  275,300;    0,000
347,003;  -72,000;  -37,100;    0,000
347,018;  474,200;  415,800;    0,000
347,033;  -34,300;  -33,100;    0,000
347,048;  376,900;  287,000;    0,000
347,063;  -77,900;  -90,000;    0,000
347,078;  135,100;  110,500;    0,000
347,093; -206,800; -167,700;    0,000
347,108;  648,400;  477,200;    0,000
347,123;  -39,300;  -60,200;    0,000
347,138;  174,800;  151,100;    0,000
347,153;  120,100;  104,600;    0,000
347,168;  437,700;  333,600;    0,000
347,183;  134,600;   73,400;    0,000
347,198;  227,900;  171,200;    0,000
347,213;   21,600;   13,700;    0,000
347,227;   87,100;   82,600;    0,000
347,242; -102,100;  -74,000;    0,000
347,257;  108,100;   99,900;    0,000
347,272;  -57,100;  -66,700;    0,000
347,287; -154,600; -143,300;    0,000
347,302; -204,500; -160,900;    0,000
347,317;  270,900;  271,800;    0,000
347,332;  -79,400;  -40,700;    0,000
347,347;  -86,400;  -66,000;    0,000
347,362; -207,900; -190,300;    0,000
347,377;   34,400;    7,900;    0,000
347,392;  169,500;  138,100;    0,000
347,407;   54,100;   25,400;    0,000
347,421; -344,100; -318,600;    0,000
347,436;  -83,400;  -53,600;    0,000
347,451;  127,800;  130,600;    0,000
347,466; -158,700; -105,600;    0,000
347,481; -134,500; -112,100;    0,000
347,496;   54,100;   44,600;    0,000
347,511; -233,200; -178,800;    0,000
347,526;  197,300;  154,000;    0,000
347,541; -127,500; -100,800;    0,000
347,556;  211,000;  177,600;    0,000
347,570;  332,600;  238,100;    0,000
347,585;   42,200;   15,800;    0,000
347,600;  -10,800;  -50,800;    0,000
347,615;  369,200;  324,700;    0,000
347,630;  100,600;  106,900;    0,000
347,645;   19,500;   21,500;    0,000
347,660;   83,800;   89,900;    0,000
347,675;  -39,800;  -32,700;    0,000
347,689;  151,000;  132,600;    0,000
347,704;   96,900;   68,200;    0,000
347,719;    4,100;   17,800;    0,000
347,734;  189,700;  158,500;    0,000
347,749; -247,500; -225,600;    0,000
347,764;  267,000;  198,500;    0,000
347,779;    2,100;   10,900;    0,000
347,793;  205,100;  170,600;    0,000
347,808; -240,300; -182,400;    0,000
347,823;  -18,200;  -27,600;    0,000
347,838;  316,900;  221,500;    0,000
347,853;  -38,700;  -58,700;    0,000
347,868;  -21,600;   -5,700;    0,000
347,882;  -75,700;  -55,400;    0,000
347,897; -190,500; -142,200;    0,000
347,912;  162,200;  119,000;    0,000
347,927;  -33,800;  -30,100;    0,000
347,942;  -15,300;  -35,200;    0,000
347,956;  191,400;   89,000;    0,000
347,971;  249,600;  211,700;    0,000
347,986; -132,600;  -88,900;    0,000
348,001;   41,700;   19,800;    0,000
348,016; -148,500; -121,600;    0,000
348,030; -125,400;  -99,900;    0,000
348,045;  -77,700;  -79,800;    0,000
348,060;  251,000;  206,100;    0,000
348,075;  -16,800;    1,100;    0,000
348,090;  -23,000;  -20,300;    0,000
348,104; -174,200; -118,100;    0,000
348,119;  -63,300;  -75,800;    0,000
348,134;  -69,900;  -28,400;    0,000
348,149; -258,400; -217,300;    0,000
348,164;  120,800;   93,000;    0,000
348,178; -119,300;  -88,700;    0,000
348,193;   16,800;   11,200;    0,000
348,208;  161,300;  118,100;    0,000
348,223;  133,600;   94,200;    0,000
348,237;  193,900;  168,300;    0,000
348,252;  251,700;  205,400;    0,000
348,267;  146,500;  163,200;    0,000
348,282;  137,000;  128,900;    0,000
348,296;   51,700;   41,800;    0,000
348,311;  137,300;  105,200;    0,000
348,326;  112,800;   88,400;    0,000
348,341;  137,500;  129,000;    0,000
348,355;   54,900;   60,800;    0,000
348,370;   32,400;  -15,700;    0,000
348,385;  -38,600;  -44,300;    0,000
348,400;  223,400;  182,500;    0,000
348,414;   35,600;   64,100;    0,000
348,429;  153,800;  111,100;    0,000
348,444;  -33,200;  -29,700;    0,000
348,458; -266,500; -199,400;    0,000
348,473;  -65,300;  -24,600;    0,000
348,488; -204,500; -153,900;    0,000
348,503;  122,900;  138,900;    0,000
348,517; -101,400;  -75,800;    0,000
348,532;  247,600;  169,500;    0,000
348,547;  -14,300;   29,200;    0,000
348,561;   33,600;   53,900;    0,000
348,576;   96,400;   74,400;    0,000
348,591;   63,800;   61,600;    0,000
348,606;  184,300;  124,700;    0,000
348,620;  100,900;   96,200;    0,000
348,635;  -64,800;  -49,300;    0,000
348,650;  149,100;  116,100;    0,000
348,664; -216,800; -186,900;    0,000
348,679;  -69,300;  -72,400;    0,000
348,694;   88,200;   99,600;    0,000
348,708;  265,000;  176,700;    0,000
348,723;  -80,500;  -73,200;    0,000
348,738;   70,100;   77,200;    0,000
348,752;  -68,600;  -63,100;    0,000
348,767;  133,300;   74,800;    0,000
348,782; -145,100; -120,600;    0,000
348,796;   65,000;   69,700;    0,000
348,811; -282,500; -209,500;    0,000
348,826;   97,700;   78,100;    0,000
348,840; -127,100; -119,700;    0,000
348,855;  310,400;  272,600;    0,000
348,870; -174,400; -135,800;    0,000
348,884;  242,100;  167,900;    0,000
348,899; -100,400; -110,400;    0,000
348,914;   99,600;   54,600;    0,000
348,928; -266,500; -183,700;    0,000
348,943;  626,600;  469,600;    0,000
348,957;   50,800;    1,600;    0,000
348,972;  276,900;  245,400;    0,000
348,987;   16,700;   -5,000;    0,000
349,001;   -5,400;    7,100;    0,000
349,016;   74,900;   58,000;    0,000
349,031;   97,900;   64,000;    0,000
349,045; -264,600; -200,300;    0,000
349,060;   78,800;   27,200;    0,000
349,074;  -65,200;  -54,700;    0,000
349,089;  151,500;  102,600;    0,000
349,104;  109,600;  128,500;    0,000
349,118;  -99,700;  -83,600;    0,000
349,133; -222,200; -208,800;    0,000
349,147;  -31,700;  -70,700;    0,000
349,162; -227,100; -177,500;    0,000
349,177;  320,800;  238,500;    0,000
349,191; -308,900; -247,200;    0,000
349,206;  120,300;   95,200;    0,000
349,220;  141,200;  162,100;    0,000
349,235;  607,100;  429,800;    0,000
349,249;   46,600;   53,500;    0,000
349,264;  166,900;  159,600;    0,000
349,279;  -76,000;  -67,900;    0,000
349,293;  164,300;   96,300;    0,000
349,308; -182,100; -172,500;    0,000
349,322;  374,100;  283,100;    0,000
349,337; -132,000;  -66,900;    0,000
349,351;  144,300;   88,800;    0,000
349,366;  178,000;  144,700;    0,000
349,380;  169,600;  162,800;    0,000
349,395;  -67,700;  -16,400;    0,000
349,410; -110,000;  -66,100;    0,000
349,424;  -27,600;  -23,600;    0,000
349,439;   -1,400;  -13,500;    0,000
349,453; -114,700; -114,100;    0,000
349,468;  392,600;  268,200;    0,000
349,482;  -31,000;   -7,000;    0,000
349,497;   99,700;   84,700;    0,000
349,511;  -41,000;  -19,200;    0,000
349,526;  138,900;   97,300;    0,000
349,540;  114,400;   85,500;    0,000
349,555;  121,500;  103,000;    0,000
349,569;  -97,100; -118,000;    0,000
349,584; -157,200; -109,300;    0,000
349,598; -105,500;  -84,400;    0,000
349,613;  209,000;  190,200;    0,000
349,627;  134,200;  101,200;    0,000
349,642;  171,800;  154,200;    0,000
349,656; -120,100; -130,300;    0,000
349,671;   -3,100;   -9,100;    0,000
349,685;  364,500;  313,500;    0,000
349,700;  -86,100;  -73,300;    0,000
349,714; -118,000;  -76,500;    0,000
349,729; -125,500;  -98,000;    0,000
349,743;   -8,000;   20,700;    0,000
349,758;  528,400;  447,900;    0,000
349,772;  -13,100;  -55,300;    0,000
349,787;   84,500;   88,800;    0,000
349,801; -213,000; -172,400;    0,000
349,816;   -2,300;   27,400;    0,000
349,830;  103,200;   58,100;    0,000
349,845; -131,000; -147,500;    0,000
349,859;  -35,900;  -61,300;    0,000
349,874;  188,600;  161,600;    0,000
349,888;  -62,200;   -6,200;    0,000
349,903;  230,100;  182,800;    0,000
349,917;   40,000;   20,500;    0,000
349,931;  344,800;  283,800;    0,000
349,946;  324,000;  221,800;    0,000
349,960;   27,800;   10,400;    0,000
349,975;   -4,300;    8,400;    0,000
349,989;  -27,400;  -26,500;    0,000
350,004; -302,100; -245,600;    0,000
350,018;  181,900;  145,800;    0,000
350,033; -116,500;  -67,300;    0,000
350,047;  -68,100;  -75,300;    0,000
350,061; -122,500; -122,700;    0,000
350,076;    8,900;  -16,200;    0,000
350,090;   73,600;   59,000;    0,000
350,105;  208,000;  181,700;    0,000
350,119; -117,600;  -83,600;    0,000
350,133;   84,300;   81,500;    0,000
350,148; -133,300; -116,800;    0,000
350,162;  254,300;  167,300;    0,000
350,177;   87,200;   52,400;    0,000
350,191;   -7,900;   13,900;    0,000
350,205; -206,000; -155,200;    0,000
350,220;  321,100;  224,500;    0,000
350,234; -102,000; -107,800;    0,000
350,249;  157,100;  146,200;    0,000
350,263; -227,300; -187,500;    0,000
350,277; -144,100; -109,700;    0,000
350,292;   70,700;   54,900;    0,000
350,306;  -58,100;  -70,100;    0,000
350,321; -418,700; -314,700;    0,000
350,335;  222,100;  192,400;    0,000
350,349;  256,500;  187,100;    0,000
350,364;   91,300;   80,300;    0,000
350,378;  -51,400;   24,400;    0,000
350,392; -107,300; -111,100;    0,000
350,407;   54,700;   44,000;    0,000
350,421;  290,400;  272,400;    0,000
350,435; -111,500;  -78,100;    0,000
350,450;  -85,800;  -93,900;    0,000
350,464; -228,900; -166,000;    0,000
350,479;  118,600;   87,300;    0,000
350,493; -259,900; -216,800;    0,000
350,507;   27,900;   -2,100;    0,000
350,522;   63,700;   58,400;    0,000
350,536;  221,000;  222,300;    0,000
350,550;  -60,100;  -69,400;    0,000
350,565;   86,800;   98,400;    0,000
350,579; -307,000; -276,100;    0,000
350,593;  387,200;  360,700;    0,000
350,608; -367,000; -347,600;    0,000
350,622; -102,500;  -84,800;    0,000
350,636;  -31,000;  -56,100;    0,000
350,650;  152,300;  160,900;    0,000
350,665;  117,600;   96,700;    0,000
350,679;  -80,300;  -20,800;    0,000
350,693; -184,100; -166,100;    0,000
350,708;  154,300;  146,200;    0,000
350,722;  183,600;  193,400;    0,000
350,736;  -11,100;  -16,400;    0,000
350,751;  -78,000;  -87,700;    0,000
350,765; -107,600;  -90,500;    0,000
350,779;  -25,500;   11,500;    0,000
350,793;   71,600;   30,400;    0,000
350,808;    2,700;  -22,800;    0,000
350,822;   94,900;  100,300;    0,000
350,836;  315,900;  274,800;    0,000
350,851;  231,000;  185,100;    0,000
350,865; -379,000; -287,400;    0,000
350,879;   78,800;   38,600;    0,000
350,893;  185,000;  175,500;    0,000
350,908;  173,000;  129,700;    0,000
350,922; -244,400; -215,300;    0,000
350,936;   52,600;   44,700;    0,000
350,950; -336,600; -274,900;    0,000
350,965;  137,400;   94,100;    0,000
350,979;   65,500;   30,200;    0,000
350,993;  182,800;  146,100;    0,000
351,007;   30,200;   11,900;    0,000
351,022; -159,200; -106,900;    0,000
351,036; -131,300; -111,300;    0,000
351,050; -133,100;  -77,900;    0,000
351,064; -456,100; -350,400;    0,000
351,079;  105,700;   82,300;    0,000
351,093; -186,400; -117,000;    0,000
351,107;  168,500;  143,300;    0,000
351,121;   92,700;   59,600;    0,000
351,135; -134,900;  -99,400;    0,000
351,150; -141,100; -101,700;    0,000
351,164; -212,800; -192,100;    0,000
351,178; -147,900; -125,200;    0,000
351,192;  234,400;  190,800;    0,000
351,207; -109,800; -105,900;    0,000
351,221;   61,100;   51,300;    0,000
351,235;  104,200;   80,400;    0,000
351,249; -226,100; -171,400;    0,000
351,263; -447,600; -365,500;    0,000
351,278;   -4,500;   -6,200;    0,000
351,292;   33,100;   -1,400;    0,000
351,306; -181,700; -134,000;    0,000
351,320; -265,000; -217,100;    0,000
351,334;  135,200;  132,900;    0,000
351,348;  -56,300;  -55,300;    0,000
351,363;  -63,400;  -45,400;    0,000
351,377;  -93,700;  -70,000;    0,000
351,391;  -80,300;  -59,200;    0,000
351,405; -107,100;  -78,200;    0,000
351,419;   14,300;   30,700;    0,000
351,434;    2,000;  -29,400;    0,000
351,448;  102,600;  104,000;    0,000
351,462;   57,200;   21,100;    0,000
351,476;  123,600;  122,700;    0,000
351,490;    1,800;   11,100;    0,000
351,504;   26,400;   33,300;    0,000
351,518;   20,800;  -17,100;    0,000
351,533;  -54,300;  -34,300;    0,000
351,547;  -83,400;  -96,300;    0,000
351,561;  -16,800;   -0,500;    0,000
351,575;  173,500;  155,300;    0,000
351,589;  533,000;  427,200;    0,000
351,603; -197,600; -167,500;    0,000
351,617;  198,800;  191,100;    0,000
351,632;  -93,300;  -83,200;    0,000
351,646;  135,600;   98,700;    0,000
351,660; -138,000; -158,400;    0,000
351,674;  -44,100;  -31,300;    0,000
351,688;  -29,500;   20,000;    0,000
351,702;  284,500;  215,900;    0,000
351,716;  463,900;  308,500;    0,000
351,730;  191,300;  187,700;    0,000
351,744; -303,500; -244,100;    0,000
351,759; -141,600; -111,800;    0,000
351,773; -403,700; -342,700;    0,000
351,787;   13,100;   -7,700;    0,000
351,801;    4,200;   30,400;    0,000
351,815;  -96,100;  -59,400;    0,000
351,829;  140,000;   85,100;    0,000
351,843;  -41,400;  -66,800;    0,000
351,857;  100,600;   75,500;    0,000
351,871;  248,300;  160,800;    0,000
351,885; -242,800; -219,900;    0,000
351,899;  109,500;   34,700;    0,000
351,913;  -33,000;  -13,100;    0,000
351,928;   14,800;  -13,600;    0,000
351,942;   62,900;   25,300;    0,000
351,956;  349,500;  300,800;    0,000
351,970;  -79,800;  -93,800;    0,000
351,984; -191,500; -125,300;    0,000
351,998;  261,100;  159,800;    0,000
352,012; -263,600; -220,500;    0,000
352,026;  -15,000;  -11,100;    0,000
352,040;  110,700;   76,100;    0,000
352,054;  182,200;  149,500;    0,000
352,068;  409,600;  370,100;    0,000
352,082;  141,000;   66,900;    0,000
352,096;  -26,900;  -34,200;    0,000
352,110;  185,600;  137,500;    0,000
352,124; -128,500; -102,500;    0,000
352,138;   77,500;   73,700;    0,000
352,152;   56,700;   31,800;    0,000
352,166; -189,100; -168,000;    0,000
352,180;  438,800;  359,100;    0,000
352,194;  -74,200;  -34,800;    0,000
352,208;   36,000;   17,800;    0,000
352,222;   91,500;   49,400;    0,000
352,236;  504,100;  447,300;    0,000
352,250;  243,200;  213,300;    0,000
352,264;  177,800;  117,700;    0,000
352,278;  -25,200;  -37,300;    0,000
352,292;   65,700;   53,800;    0,000
352,306; -138,800;  -92,900;    0,000
352,320;  -66,700;  -57,100;    0,000
352,334;  -36,500;  -47,300;    0,000
352,348;  507,500;  394,700;    0,000
352,362; -171,200; -111,700;    0,000
352,376;   21,500;   17,400;    0,000
352,390; -394,100; -349,500;    0,000
352,404;    4,000;    5,900;    0,000
352,418;  -95,600;  -45,500;    0,000
352,432;  359,800;  251,400;    0,000
352,446;  117,600;   93,800;    0,000
352,460;   10,800;   21,900;    0,000
352,474; -188,400; -141,200;    0,000
352,488;   49,800;   34,200;    0,000
352,502; -268,700; -276,900;    0,000
352,516;  133,600;  127,000;    0,000
352,530; -102,100;  -67,000;    0,000
352,544;  -30,200;   -7,500;    0,000
352,558;  -83,800;  -48,400;    0,000
352,572;  340,000;  301,500;    0,000
352,586;  268,900;  207,300;    0,000
352,600;   89,800;   59,100;    0,000
352,613; -122,000; -116,500;    0,000
352,627;  193,800;  160,600;    0,000
352,641;    9,000;    9,400;    0,000
352,655;  222,400;  153,200;    0,000
352,669;  250,900;  166,500;    0,000
352,683;  108,700;   74,500;    0,000
352,697; -138,000; -118,300;    0,000
352,711;  161,700;  139,600;    0,000
352,725; -131,300;  -99,600;    0,000
352,739;  344,200;  300,900;    0,000
352,753;   16,600;  -14,000;    0,000
352,767;   62,700;   40,800;    0,000
352,780; -313,000; -282,900;    0,000
352,794;  176,100;  158,600;    0,000
352,808;   10,100;   -9,700;    0,000
352,822;  -42,100;  -63,600;    0,000
352,836; -462,700; -348,900;    0,000
352,850;  177,800;  148,200;    0,000
352,864; -201,800; -142,900;    0,000
352,878;  105,800;   43,300;    0,000
352,892;   49,300;    0,500;    0,000
352,905;  282,700;  235,100;    0,000
352,919; -149,200; -138,100;    0,000
352,933;  103,600;   73,700;    0,000
352,947; -208,600; -219,600;    0,000
352,961;  142,300;  115,700;    0,000
352,975;   32,100;   31,200;    0,000
352,989;  107,400;  107,700;    0,000
353,003; -182,600; -166,000;    0,000
353,016;   70,100;   73,500;    0,000
353,030;   27,800;   -2,400;    0,000
353,044;  104,500;   80,000;    0,000
353,058; -137,900; -130,900;    0,000
353,072;  263,300;  201,000;    0,000
353,086;  -98,600;  -50,300;    0,000
353,099;  401,200;  313,400;    0,000
353,113; -195,000; -138,800;    0,000
353,127;  280,800;  234,100;    0,000
353,141;  -77,400;  -86,200;    0,000
353,155;   53,000;   41,100;    0,000
353,169;  399,300;  274,400;    0,000
353,182;  -10,400;  -12,600;    0,000
353,196; -215,100; -175,600;    0,000
353,210; -208,200; -173,200;    0,000
353,224;  -58,400;  -40,900;    0,000
353,238;  299,600;  245,600;    0,000
353,251;  462,100;  394,400;    0,000
353,265;   40,800;   30,200;    0,000
353,279; -223,900; -175,000;    0,000
353,293;  127,300;  101,100;    0,000
353,307;  -97,100;  -92,200;    0,000
353,320;  377,500;  265,900;    0,000
353,334;  -35,400;  -44,200;    0,000
353,348;  103,200;   90,800;    0,000
353,362;  142,800;   83,700;    0,000
353,376;   31,200;   35,000;    0,000
353,389; -201,900; -175,400;    0,000
353,403;  202,000;  171,900;    0,000
353,417; -111,900;  -78,500;    0,000
353,431;  -69,100;  -60,800;    0,000
353,445; -322,600; -258,300;    0,000
353,458;   52,700;   45,900;    0,000
353,472;  299,100;  220,600;    0,000
353,486;   46,100;   31,400;    0,000
353,500;  359,700;  267,400;    0,000
353,513;  109,400;  101,400;    0,000
353,527;  115,400;   67,800;    0,000
353,541;  -88,000;  -71,200;    0,000
353,555;  -65,500;  -53,300;    0,000
353,568;  159,700;  107,300;    0,000
353,582;  -30,500;  -35,700;    0,000
353,596;  301,700;  256,100;    0,000
353,610; -208,500; -179,500;    0,000
353,623;   99,900;   31,100;    0,000
353,637;  146,500;  131,400;    0,000
353,651;  236,400;  179,400;    0,000
353,664;  242,300;  186,700;    0,000
353,678;   42,700;   23,800;    0,000
353,692; -145,100; -146,900;    0,000
353,706;   73,700;   34,000;    0,000
353,719;  -60,700;  -40,800;    0,000
353,733;   40,700;   56,600;    0,000
353,747; -489,200; -391,100;    0,000
353,760;   55,300;   71,000;    0,000
353,774; -239,800; -224,100;    0,000
353,788;  363,200;  294,300;    0,000
353,802;  138,200;   99,800;    0,000
353,815;  -12,800;  -30,800;    0,000
353,829;   96,300;   35,900;    0,000
353,843;   61,000;   75,600;    0,000
353,856;  173,100;  147,800;    0,000
353,870;  325,000;  266,300;    0,000
353,884; -195,300; -129,000;    0,000
353,897;  350,700;  297,000;    0,000
353,911;   50,200;   33,300;    0,000
353,925;   11,300;   29,800;    0,000
353,938;  -12,000;  -24,600;    0,000
353,952;  291,600;  230,300;    0,000
353,966;   91,600;   49,500;    0,000
353,979;  -28,300;  -12,000;    0,000
353,993;  136,900;  118,600;    0,000
354,007;   56,900;   31,300;    0,000
354,020; -143,800; -129,100;    0,000
354,034;  317,100;  223,700;    0,000
354,048; -162,300; -105,400;    0,000
354,061;   50,700;   69,200;    0,000
354,075; -153,900; -140,800;    0,000
354,089; -130,900;  -83,000;    0,000
354,102; -108,900; -123,900;    0,000
354,116;  105,500;   81,500;    0,000
354,129;  304,500;  240,300;    0,000
354,143;   45,500;   44,400;    0,000
354,157;  253,900;  227,500;    0,000
354,170;  185,200;   98,800;    0,000
354,184;  671,900;  864,100;    0,000
354,198;  -33,500;  -25,000;    0,000
354,211; -220,400; -195,700;    0,000
354,225;  166,700;  128,200;    0,000
354,238; -226,900; -160,100;    0,000
354,252;   18,100;   -1,800;    0,000
354,266;   41,700;   17,600;    0,000
354,279;  134,200;  140,600;    0,000
354,293;  -66,700;  -43,800;    0,000
354,306;  255,000;  186,000;    0,000
354,320;  -23,900;   -5,400;    0,000
354,334;  100,500;   94,700;    0,000
354,347; -151,200;  -85,800;    0,000
354,361;  454,400;  340,500;    0,000
354,374;  -34,800;  -57,000;    0,000
354,388;  233,700;  176,000;    0,000
354,401;  -81,200; -110,800;    0,000
354,415;  172,900;  133,500;    0,000
354,429;   45,800;   31,000;    0,000
354,442;  239,700;  181,700;    0,000
354,456;  -86,400;  -75,700;    0,000
354,469;  406,200;  330,700;    0,000
354,483; -385,200; -304,000;    0,000
354,496;  895,900; 1085,900;    0,000
354,510; -292,400; -233,200;    0,000
354,524;  -20,700;  -14,700;    0,000
354,537;   11,800;  -35,600;    0,000
354,551;  128,400;  118,300;    0,000
354,564;   16,400;    4,900;    0,000
354,578;   40,800;   21,300;    0,000
354,591;  -60,400;  -51,700;    0,000
354,605;  414,200;  383,200;    0,000
354,618; -283,500; -238,300;    0,000
354,632;  165,900;  127,900;    0,000
354,645; -260,200; -178,900;    0,000
354,659;  246,200;  199,500;    0,000
354,672;  232,700;  171,000;    0,000
354,686; -202,400; -171,600;    0,000
354,699;  209,600;  153,200;    0,000
354,713;  124,200;  102,900;    0,000
354,726;   37,500;   52,700;    0,000
354,740;  183,200;  166,300;    0,000
354,753; -108,300; -112,900;    0,000
354,767;  108,700;   89,300;    0,000
354,780; -218,100; -171,800;    0,000
354,794;  271,000;  219,000;    0,000
354,807;  156,000;  131,600;    0,000
354,821;   39,200;   34,900;    0,000
354,834;  420,700;  353,000;    0,000
354,848;  150,300;  109,900;    0,000
354,861; -108,700; -101,900;    0,000
354,875;   13,300;   11,500;    0,000
354,888; -212,600; -171,300;    0,000
354,902;  -10,100;  -15,700;    0,000
354,915; -303,500; -229,500;    0,000
354,929;  159,400;  103,400;    0,000
354,942; -203,200; -172,400;    0,000
354,956;   -5,400;   -9,200;    0,000
354,969; -107,800;  -81,800;    0,000
354,983;  152,900;  138,100;    0,000
354,996; -104,400; -111,800;    0,000
355,010;  120,000;   85,500;    0,000
355,023;  257,700;  148,400;    0,000
355,036;   55,500;   64,100;    0,000
355,050; -200,100; -162,700;    0,000
355,063;   64,500;   27,600;    0,000
355,077; -199,500; -209,600;    0,000
355,090;   -8,800;  -38,900;    0,000
355,104; -212,100; -172,600;    0,000
355,117;   16,800;    7,900;    0,000
355,130; -573,700; -449,300;    0,000
355,144;  -28,400;  -31,900;    0,000
355,157;   46,100;   15,100;    0,000
355,171;  289,700;  198,300;    0,000
355,184;  161,900;  127,900;    0,000
355,198;   49,300;   53,600;    0,000
355,211; -287,600; -247,100;    0,000
355,224;  216,300;  168,500;    0,000
355,238;  227,700;  198,600;    0,000
355,251;  158,000;  142,300;    0,000
355,265;  -77,200;  -39,700;    0,000
355,278;   57,200;   57,500;    0,000
355,291; -109,000;  -95,300;    0,000
355,305;  253,300;  185,100;    0,000
355,318;  270,800;  223,400;    0,000
355,332;  -18,400;  -36,500;    0,000
355,345;   12,300;  -23,100;    0,000
355,358;  298,900;  250,200;    0,000
355,372; -297,000; -283,200;    0,000
355,385;  109,800;   91,600;    0,000
355,398; -224,200; -182,300;    0,000
355,412;   32,200;   31,300;    0,000
355,425; -240,900; -161,700;    0,000
355,438;  -15,200;  -26,300;    0,000
355,452;  141,900;  118,700;    0,000
355,465;  448,900;  433,000;    0,000
355,479;  245,100;  183,500;    0,000
355,492;  163,900;  129,500;    0,000
355,505;  369,300;  258,700;    0,000
355,519;   87,700;   38,800;    0,000
355,532;  149,400;  101,700;    0,000
355,545; -111,100;  -73,800;    0,000
355,559;  275,700;  163,100;    0,000
355,572;  165,800;  101,100;    0,000
355,585;  -62,400;   -9,500;    0,000
355,599; -392,000; -283,800;    0,000
355,612; -193,200; -152,400;    0,000
355,625;   71,500;   75,400;    0,000
355,639;  125,000;   94,700;    0,000
355,652;  -58,600;  -30,000;    0,000
355,665; -200,400; -164,800;    0,000
355,679;  -18,000;  -17,700;    0,000
355,692;   31,500;   -9,600;    0,000
355,705;  401,500;  256,100;    0,000
355,718; -292,700; -231,000;    0,000
355,732;  109,700;   67,000;    0,000
355,745;  -64,900;  -54,100;    0,000
355,758;  -48,300;  -24,100;    0,000
355,772; -188,100; -178,300;    0,000
355,785;  181,100;  120,200;    0,000
355,798;  -89,200; -106,400;    0,000
355,811;    4,500;   17,500;    0,000
355,825; -200,100; -187,700;    0,000
355,838;   47,900;   36,100;    0,000
355,851;  -66,400;  -47,600;    0,000
355,865;  232,500;  216,400;    0,000
355,878; -354,900; -283,200;    0,000
355,891;  196,800;  194,500;    0,000
355,904; -102,800; -108,200;    0,000
355,918;  -88,000;  -72,900;    0,000
355,931; -227,600; -218,400;    0,000
355,944;  173,700;  130,800;    0,000
355,957;   41,500;   14,500;    0,000
355,971;  108,300;   94,800;    0,000
355,984; -177,100; -144,100;    0,000
355,997;   62,400;   48,700;    0,000
356,010;  -46,900;  -51,800;    0,000
356,024;  422,500;  328,800;    0,000
356,037; -152,200; -145,100;    0,000
356,050;   67,500;   92,100;    0,000
356,063; -264,200; -203,000;    0,000
356,077;  254,100;  185,900;    0,000
356,090; -156,100; -140,000;    0,000
356,103;   81,500;   65,200;    0,000
356,116; -164,200; -146,000;    0,000
356,129;  -40,000;  -27,900;    0,000
356,143; -219,700; -188,600;    0,000
356,156;  190,500;  132,100;    0,000
356,169;   -5,400;  -22,800;    0,000
356,182;   40,900;   25,500;    0,000
356,196; -174,500; -118,500;    0,000
356,209;  204,400;  188,500;    0,000
356,222; -215,800; -187,400;    0,000
356,235; -121,000;  -97,000;    0,000
356,248; -187,100; -121,500;    0,000
356,261;  147,400;  116,800;    0,000
356,275;  126,600;   85,400;    0,000
356,288;   -2,800;  -30,800;    0,000
356,301;  253,800;  145,100;    0,000
356,314;  430,500;  355,700;    0,000
356,327;  -87,000;  -65,500;    0,000
356,341;  -20,500;  -16,100;    0,000
356,354; -390,300; -315,500;    0,000
356,367;  272,600;  231,800;    0,000
356,380;  -11,000;  -33,600;    0,000
356,393;   66,200;   37,200;    0,000
356,406;  112,900;   90,600;    0,000
356,420;  128,600;   91,700;    0,000
356,433; -144,000; -137,700;    0,000
356,446;  -79,000;  -46,500;    0,000
356,459;  -59,000;  -51,000;    0,000
356,472; -137,900; -114,700;    0,000
356,485;    5,000;  -14,300;    0,000
356,498;  150,700;  128,500;    0,000
356,512;  -58,300;  -54,600;    0,000
356,525;  166,600;  125,900;    0,000
356,538; -275,900; -239,100;    0,000
356,551;  -45,500;  -57,400;    0,000
356,564; -158,200; -114,900;    0,000
356,577;   97,400;  112,500;    0,000
356,590; -235,800; -227,800;    0,000
356,603;  -81,000;  -35,100;    0,000
356,617;  184,400;  117,200;    0,000
356,630;  191,200;  163,400;    0,000
356,643; -155,400; -104,100;    0,000
356,656;  101,100;   61,700;    0,000
356,669; -159,300; -138,400;    0,000
356,682;  -54,800;  -52,900;    0,000
356,695;  -24,700;  -20,900;    0,000
356,708;  -40,700;  -12,300;    0,000
356,721; -106,000;  -68,400;    0,000
356,734;  264,000;  189,100;    0,000
356,748;  336,200;  242,200;    0,000
356,761;  141,200;   71,200;    0,000
356,774; -112,800;  -97,300;    0,000
356,787;   14,400;   -8,500;    0,000
356,800; -222,400; -189,400;    0,000
356,813;  578,500;  452,000;    0,000
356,826; -308,400; -256,700;    0,000
356,839;  215,700;  186,400;    0,000
356,852;   52,400;   43,300;    0,000
356,865; -174,200; -133,800;    0,000
356,878;  126,700;   55,500;    0,000
356,891;  -80,900;  -47,800;    0,000
356,904;   77,200;   47,800;    0,000
356,917;  184,500;  124,800;    0,000
356,930; -176,800; -135,300;    0,000
356,943;  201,800;  180,300;    0,000
356,957;  254,100;  196,500;    0,000
356,970; -204,100; -187,400;    0,000
356,983; -159,800; -171,500;    0,000
356,996;  311,500;  281,300;    0,000
357,009;  -36,600;  -45,000;    0,000
357,022; -130,600; -116,000;    0,000
357,035;  -13,900;  -10,200;    0,000
357,048;  129,300;  128,800;    0,000
357,061; -138,400; -124,300;    0,000
357,074;   12,300;   -7,900;    0,000
357,087;  115,400;   81,100;    0,000
357,100;  -58,200;  -48,900;    0,000
357,113;   57,000;   22,700;    0,000
357,126;   -1,400;  -44,200;    0,000
357,139;  105,300;   53,200;    0,000
357,152;  447,500;  351,300;    0,000
357,165; -169,400; -133,000;    0,000
357,178;   51,600;   30,900;    0,000
357,191; -395,800; -322,500;    0,000
357,204;  -13,300;    8,300;    0,000
357,217;  268,900;  226,200;    0,000
357,230;  121,500;  111,500;    0,000
357,243;   48,200;   -8,600;    0,000
357,256;    4,800;   37,100;    0,000
357,269; -364,600; -312,900;    0,000
357,282;  253,300;  197,400;    0,000
357,295; -312,900; -235,500;    0,000
357,308;  171,500;  149,700;    0,000
357,320; -166,200; -171,200;    0,000
357,333;  486,200;  342,800;    0,000
357,346; -257,200; -226,200;    0,000
357,359;  172,700;  135,900;    0,000
357,372;    1,700;  -34,000;    0,000
357,385;  450,300;  358,400;    0,000
357,398;  224,900;  131,500;    0,000
357,411;   35,300;   12,900;    0,000
357,424;  254,900;  269,800;    0,000
357,437;  261,200;  208,400;    0,000
357,450; -115,600; -115,900;    0,000
357,463;  -23,800;   -9,900;    0,000
357,476;  -81,300;  -55,500;    0,000
357,489;  769,800;  587,900;    0,000
357,502; -190,900; -178,000;    0,000
357,515;   19,600;   10,200;    0,000
357,528;   86,100;   41,400;    0,000
357,540;   43,400;   69,100;    0,000
357,553;  187,300;  124,100;    0,000
357,566;  163,200;  118,600;    0,000
357,579;  -36,500;  -38,100;    0,000
357,592;  361,200;  248,400;    0,000
357,605;  223,700;  167,700;    0,000
357,618;  264,800;  166,900;    0,000
357,631;   49,100;   35,000;    0,000
357,644;   54,200;   36,100;    0,000
357,657; -195,500; -165,900;    0,000
357,669; -111,600; -104,000;    0,000
357,682;  -46,000;  -46,900;    0,000
357,695;  210,500;  145,100;    0,000
357,708; -128,800; -115,100;    0,000
357,721;  -14,000;  -52,900;    0,000
357,734; -216,500; -187,700;    0,000
357,747;  248,400;  254,300;    0,000
357,760; -112,700;  -97,400;    0,000
357,772;  243,900;  218,400;    0,000
357,785; -175,100; -127,600;    0,000
357,798;  -93,800;  -64,100;    0,000
357,811; -142,500; -138,000;    0,000
357,824;  -31,000;   -0,300;    0,000
357,837;  -10,500;    9,400;    0,000
357,850; -240,400; -187,000;    0,000
357,862; -265,100; -207,100;    0,000
357,875;  170,200;  150,300;    0,000
357,888; -251,300; -194,000;    0,000
357,901;  180,200;  128,800;    0,000
357,914;  -32,100;  -30,500;    0,000
357,927;  107,400;   80,600;    0,000
357,939; -179,700; -118,900;    0,000
357,952;  146,000;   56,200;    0,000
357,965;  182,400;  136,700;    0,000
357,978;   10,300;   11,600;    0,000
357,991;  174,200;  132,200;    0,000
358,003; -101,900;  -60,200;    0,000
358,016;   62,800;   67,300;    0,000
358,029; -216,700; -144,800;    0,000
358,042;  456,500;  377,000;    0,000
358,055;  415,900;  320,100;    0,000
358,067; -160,700; -155,000;    0,000
358,080;   23,600;   26,300;    0,000
358,093;   91,000;   61,500;    0,000
358,106;  153,800;  124,900;    0,000
358,119;   38,500;   60,400;    0,000
358,131;   35,600;   42,600;    0,000
358,144;  -95,300;  -60,500;    0,000
358,157;   18,000;   43,900;    0,000
358,170;  -33,300;  -48,300;    0,000
358,183;  200,400;  135,300;    0,000
358,195; -391,900; -325,700;    0,000
358,208;  -22,000;  -48,000;    0,000
358,221;   61,900;   49,600;    0,000
358,234;  154,400;  112,700;    0,000
358,246; -162,000; -152,800;    0,000
358,259;  -83,500;  -67,100;    0,000
358,272; -150,800; -154,500;    0,000
358,285;   22,600;   20,900;    0,000
358,297;   22,500;   21,600;    0,000
358,310;  134,200;  129,000;    0,000
358,323;  121,400;   93,100;    0,000
358,336;   15,800;    2,000;    0,000
358,348;  -10,800;  -23,900;    0,000
358,361;  252,800;  174,300;    0,000
358,374;  191,700;  126,100;    0,000
358,387;  225,000;  165,500;    0,000
358,399;  164,100;  145,200;    0,000
358,412;  234,500;  191,700;    0,000
358,425; -284,900; -233,900;    0,000
358,437;  -40,400;  -40,100;    0,000
358,450;  -21,900;  -32,800;    0,000
358,463;  -61,800; -100,000;    0,000
358,476;   37,700;   13,900;    0,000
358,488; -183,800; -180,300;    0,000
358,501;  -84,700;  -77,800;    0,000
358,514;   18,600;  -40,800;    0,000
358,526;  197,800;  137,300;    0,000
358,539;  192,900;  179,700;    0,000
358,552;    3,200;   -2,100;    0,000
358,564;   45,700;   48,300;    0,000
358,577; -164,400; -136,200;    0,000
358,590;  187,700;  171,500;    0,000
358,602;   29,800;    9,700;    0,000
358,615;  663,000;  512,000;    0,000
358,628;  141,800;   97,800;    0,000
358,641;  -54,300;  -28,800;    0,000
358,653; -206,300; -150,600;    0,000
358,666;   15,300;  -13,400;    0,000
358,678;  204,100;  126,800;    0,000
358,691;  119,500;  103,800;    0,000
358,704;   93,300;   72,500;    0,000
358,716; -161,200; -149,900;    0,000
358,729; -342,000; -262,200;    0,000
358,742; -116,800;  -98,700;    0,000
358,754;   97,100;   65,700;    0,000
358,767;   91,600;   70,500;    0,000
358,780; -306,300; -247,500;    0,000
358,792;  155,400;  137,100;    0,000
358,805;   -5,800;   30,100;    0,000
358,818; -263,700; -215,100;    0,000
358,830;  -13,400;   -3,400;    0,000
358,843;   47,400;   42,800;    0,000
358,855; -133,300; -134,000;    0,000
358,868;  147,200;  105,400;    0,000
358,881; -299,500; -273,900;    0,000
358,893;  -98,100;  -97,000;    0,000
358,906; -366,500; -319,600;    0,000
358,919;  140,400;   99,900;    0,000
358,931; -199,300; -164,300;    0,000
358,944; -175,000; -145,600;    0,000
358,956;  264,800;  232,700;    0,000
358,969;  413,300;  330,800;    0,000
358,982;  131,000;  121,400;    0,000
358,994;  281,800;  225,700;    0,000
359,007;   53,900;   23,300;    0,000
359,019;  595,000;  507,000;    0,000
359,032; -179,300; -155,300;    0,000
359,044;  340,300;  212,700;    0,000
359,057; -171,300; -160,700;    0,000
359,070;   35,800;   26,600;    0,000
359,082; 1741,800; 1579,500;    0,000
359,095;   32,500;   10,800;    0,000
359,107;  -39,000;  -21,800;    0,000
359,120;  104,300;   63,100;    0,000
359,132;    6,400;  -23,200;    0,000
359,145;  195,900;  171,200;    0,000
359,158;   68,300;   57,000;    0,000
359,170;  165,700;  121,000;    0,000
359,183; -133,100; -154,900;    0,000
359,195;  495,400;  444,000;    0,000
359,208; -301,400; -219,400;    0,000
359,220;  172,800;  138,600;    0,000
359,233;   64,200;   66,100;    0,000
359,245;   72,300;   65,300;    0,000
359,258;  -68,200;  -31,300;    0,000
359,270;  320,100;  247,000;    0,000
359,283; -361,400; -288,200;    0,000
359,296;  319,500;  274,800;    0,000
359,308; -120,900; -106,700;    0,000
359,321;  161,300;  117,000;    0,000
359,333;  462,100;  339,600;    0,000
359,346;  298,400;  259,300;    0,000
359,358;  -23,100;  -36,700;    0,000
359,371; -146,300; -133,300;    0,000
359,383;  -69,400;  -68,300;    0,000
359,396;  558,000;  428,200;    0,000
359,408;  172,100;  135,700;    0,000
359,421; -174,200; -126,200;    0,000
359,433;   57,600;   14,200;    0,000
359,446;  158,400;   94,800;    0,000
359,458;   41,400;   17,200;    0,000
359,471;   37,400;   27,200;    0,000
359,483; -225,100; -164,900;    0,000
359,496;  239,800;  177,100;    0,000
359,508; -136,000; -104,600;    0,000
359,520;  152,800;  104,700;    0,000
359,533;  -94,600;  -62,600;    0,000
359,545;  252,600;  228,100;    0,000
359,558;   64,700;   27,600;    0,000
359,570;  110,000;  101,700;    0,000
359,583;  233,200;  133,800;    0,000
359,595;  104,400;  108,000;    0,000
359,608;  108,400;   79,500;    0,000
359,620; -206,000; -204,800;    0,000
359,633;  -50,200;  -41,800;    0,000
359,645;   53,300;   43,700;    0,000
359,658;  253,600;  220,500;    0,000
359,670;  557,800;  430,100;    0,000
359,682;   77,800;   45,900;    0,000
359,695;   94,500;   82,900;    0,000
359,707;  417,800;  315,100;    0,000
359,720; -200,000; -181,100;    0,000
359,732;  -47,000;  -51,500;    0,000
359,745;   36,100;   29,800;    0,000
359,757;  201,900;  194,000;    0,000
359,769;  226,500;  180,900;    0,000
359,782;  177,000;  119,500;    0,000
359,794;   63,200;   67,600;    0,000
359,807; -121,800;  -76,000;    0,000
359,819;  175,700;  125,700;    0,000
359,831; -266,100; -252,200;    0,000
359,844;  180,700;  140,700;    0,000
359,856;  167,000;  125,400;    0,000
359,869;  483,000;  345,000;    0,000
359,881;  134,200;  104,300;    0,000
359,893;   74,500;   72,600;    0,000
359,906;   44,000;   28,300;    0,000
359,918;  542,200;  448,800;    0,000
359,930;  -86,000;  -76,000;    0,000
359,943;  106,500;   57,700;    0,000
359,955; -223,700; -203,300;    0,000
359,968;   48,800;   19,800;    0,000
359,980; -225,400; -197,900;    0,000
359,992;  171,900;  137,000;    0,000
360,005; -252,700; -179,500;    0,000
360,017;  -68,800;  -45,500;    0,000
360,029;  -83,100;  -81,000;    0,000
360,042;    0,000;   26,000;    0,000
360,054;  -57,300;  -64,600;    0,000
360,066;  450,000;  343,600;    0,000
360,079; -132,700; -114,200;    0,000
360,091;  176,600;  191,000;    0,000
360,103;  305,900;  250,700;    0,000
360,116;  405,800;  312,700;    0,000
360,128;   26,900;   37,200;    0,000
360,141;   79,600;   53,400;    0,000
360,153;  -90,500;  -56,300;    0,000
360,165; -152,200; -108,800;    0,000
360,177; -179,400; -148,000;    0,000
360,190;   67,900;   48,100;    0,000
360,202;   90,900;   65,500;    0,000
360,214;   14,000;   30,800;    0,000
360,227; -239,500; -149,200;    0,000
360,239;  357,100;  312,200;    0,000
360,251; -128,900; -121,500;    0,000
360,264;  483,100;  402,900;    0,000
360,276;   37,500;   38,600;    0,000
360,288;  -23,300;    1,600;    0,000
360,301; -150,600; -137,900;    0,000
360,313;  -53,600;  -81,700;    0,000
360,325;  -33,500;  -16,600;    0,000
360,337;  131,000;  116,200;    0,000
360,350;   19,300;    8,900;    0,000
360,362;  176,600;  125,200;    0,000
360,374;  -67,700;  -60,000;    0,000
360,387;  101,800;   70,500;    0,000
360,399;   -2,500;  -10,100;    0,000
360,411;  229,000;  180,500;    0,000
360,423;   35,900;   14,100;    0,000
360,436;  214,800;  162,600;    0,000
360,448;  193,400;  160,100;    0,000
360,460;  176,100;  114,400;    0,000
360,472; -409,700; -334,000;    0,000
360,485; -111,900;  -66,400;    0,000
360,497; -115,200;  -93,600;    0,000
360,509;  -90,900;  -92,500;    0,000
360,521; -221,300; -202,000;    0,000
360,534;  209,500;  127,100;    0,000
360,546;   26,400;   28,100;    0,000
360,558;  169,100;  154,900;    0,000
360,570; -208,300; -141,900;    0,000
360,582;  348,400;  267,700;    0,000
360,595; -169,400; -132,300;    0,000
360,607;  568,700;  452,300;    0,000
360,619; -109,700; -107,500;    0,000
360,631;  173,600;  161,400;    0,000
360,644;   54,500;   60,900;    0,000
360,656;  307,800;  200,000;    0,000
360,668; -173,700; -162,400;    0,000
360,680;  252,000;  223,700;    0,000
360,692;  255,900;  267,300;    0,000
360,705;  111,600;   93,300;    0,000
360,717; -180,000; -167,100;    0,000
360,729;  153,900;  136,500;    0,000
360,741;  266,100;  219,900;    0,000
360,753;  353,800;  210,700;    0,000
360,766;  -24,900;  -15,300;    0,000
360,778;  172,100;  160,100;    0,000
360,790; -267,400; -206,300;    0,000
360,802;  605,400;  449,900;    0,000
360,814;  188,500;  160,700;    0,000
360,826; 1013,500; 1206,100;    0,000
360,839;    1,800;   -3,300;    0,000
360,851;  128,700;   84,400;    0,000
360,863; -148,100; -118,700;    0,000
360,875;  343,500;  297,800;    0,000
360,887;  -47,300;  -18,700;    0,000
360,899;  381,700;  276,700;    0,000
360,912; -166,600; -143,300;    0,000
360,924;  170,000;  156,300;    0,000
360,936;   49,500;   10,900;    0,000
360,948;   56,600;   66,400;    0,000
360,960;   29,300;   16,400;    0,000
360,972;  355,400;  294,500;    0,000
360,984; -547,600; -448,700;    0,000
360,997;  534,300;  456,000;    0,000
361,009; -308,100; -212,700;    0,000
361,021;   90,500;   57,800;    0,000
361,033;  109,200;  106,100;    0,000
361,045;    2,900;    2,200;    0,000
361,057;  354,600;  263,100;    0,000
361,069;  550,400;  442,600;    0,000
361,081; -363,400; -282,500;    0,000
361,093;  395,400;  306,200;    0,000
361,106;  186,600;  132,100;    0,000
361,118;   52,900;   35,900;    0,000
361,130;  171,600;  116,700;    0,000
361,142;  304,400;  254,900;    0,000
361,154; -269,800; -220,400;    0,000
361,166;  135,500;  132,400;    0,000
361,178; -298,700; -233,800;    0,000
361,190; -112,800;  -89,400;    0,000
361,202;   31,400;   19,500;    0,000
361,214; -184,300; -167,500;    0,000
361,226; -312,100; -218,800;    0,000
361,239;  204,800;  134,600;    0,000
361,251;  106,600;   83,800;    0,000
361,263;  113,100;   83,000;    0,000
361,275;  -54,900;  -56,300;    0,000
361,287;   94,600;   90,700;    0,000
361,299;  -33,300;  -29,800;    0,000
361,311;  -49,300;  -45,300;    0,000
361,323;   57,300;   17,400;    0,000
361,335;  293,100;  225,300;    0,000
361,347; -264,300; -226,800;    0,000
361,359;  -24,300;   10,300;    0,000
361,371;  -70,200;  -53,200;    0,000
361,383; -146,800; -117,400;    0,000
361,395;  313,200;  194,400;    0,000
361,407;  -65,300;  -28,600;    0,000
361,419;  -31,100;  -29,800;    0,000
361,431;  367,600;  294,700;    0,000
361,443;  147,300;   81,000;    0,000
361,455;   81,900;   63,000;    0,000
361,467; -295,100; -241,000;    0,000
361,479;  207,300;  146,700;    0,000
361,491; -230,900; -189,900;    0,000
361,503;  261,300;  217,300;    0,000
361,515;  155,100;  158,600;    0,000
361,527;   25,500;  -17,000;    0,000
361,539;  -41,700;  -23,400;    0,000
361,551;  191,900;  156,300;    0,000
361,563; -186,600; -149,300;    0,000
361,575;  -25,500;  -21,000;    0,000
361,587;  138,300;  102,600;    0,000
361,599;  199,100;  192,700;    0,000
361,611;   79,000;   67,000;    0,000
361,623;   50,900;   26,500;    0,000
361,635;   62,500;   76,600;    0,000
361,647;  198,800;  187,400;    0,000
361,659;  137,300;   77,200;    0,000
361,671;   44,200;   88,800;    0,000
361,683;  -77,300;  -47,700;    0,000
361,695;  200,500;  169,900;    0,000
361,707;  -23,000;   -6,300;    0,000
361,719;  143,500;  135,400;    0,000
361,731;   -6,100;  -26,600;    0,000
361,743;  325,300;  261,700;    0,000
361,755;  -28,000;   -2,000;    0,000
361,767;  -68,900;  -25,500;    0,000
361,779; -161,200; -132,000;    0,000
361,791; -136,700; -128,900;    0,000
361,803;   81,400;   95,800;    0,000
361,815;  345,300;  289,100;    0,000
361,827;  375,100;  239,200;    0,000
361,839; -100,300;  -75,800;    0,000
361,850;  121,400;  101,000;    0,000
361,862;  343,800;  287,600;    0,000
361,874; -201,900; -180,100;    0,000
361,886;  -88,700;  -88,300;    0,000
361,898; -246,800; -225,800;    0,000
361,910;  160,300;  114,600;    0,000
361,922;  106,200;   67,000;    0,000
361,934;  427,600;  346,800;    0,000
361,946; -304,500; -243,600;    0,000
361,958;  391,900;  310,100;    0,000
361,970; -257,200; -232,400;    0,000
361,981;  360,700;  311,100;    0,000
361,993;  -93,200;  -79,600;    0,000
362,005;  -77,600;  -68,200;    0,000
362,017;  177,300;  160,300;    0,000
362,029; -131,900;  -81,700;    0,000
362,041; -318,900; -293,800;    0,000
362,053; -107,600;  -79,300;    0,000
362,065;  -83,900;  -50,400;    0,000
362,077;  -29,400;  -24,700;    0,000
362,088;  108,600;   30,800;    0,000
362,100;  -46,600;  -93,200;    0,000
362,112; -218,100; -162,800;    0,000
362,124;   -2,600;  -33,600;    0,000
362,136;   77,400;   45,400;    0,000
362,148;  -96,400;  -71,100;    0,000
362,160;  396,600;  309,500;    0,000
362,171;  457,500;  388,500;    0,000
362,183;  -79,100;  -53,800;    0,000
362,195; -160,100; -102,800;    0,000
362,207;  -31,600;  -49,900;    0,000
362,219;  -16,400;   -4,900;    0,000
362,231;   42,200;   54,700;    0,000
362,242;  -42,700;   -7,100;    0,000
362,254; -238,500; -210,200;    0,000
362,266;  358,700;  299,800;    0,000
362,278;  171,600;  144,700;    0,000
362,290;   65,400;   43,700;    0,000
362,302; -140,300;  -96,700;    0,000
362,313;  -54,200;  -63,200;    0,000
362,325;   -2,600;   -6,600;    0,000
362,337;   72,600;   87,700;    0,000
362,349;  -94,800;  -92,400;    0,000
362,361;   46,600;   64,400;    0,000
362,372;   79,300;   42,200;    0,000
362,384;  322,900;  253,200;    0,000
362,396;    1,000;   21,700;    0,000
362,408;   98,800;   60,300;    0,000
362,420; -365,600; -290,000;    0,000
362,431;   34,800;   37,300;    0,000
362,443;  103,700;   72,600;    0,000
362,455; -114,800;  -84,100;    0,000
362,467;   13,100;    7,100;    0,000
362,478;   35,200;   38,700;    0,000
362,490; -323,500; -274,400;    0,000
362,502;    1,000;    2,200;    0,000
362,514;   28,100;   21,800;    0,000
362,525; -364,800; -323,300;    0,000
362,537; -182,700; -148,700;    0,000
362,549;  334,400;  284,700;    0,000
362,561; -178,000; -130,800;    0,000
362,573;  413,900;  315,300;    0,000
362,584;  135,600;  110,200;    0,000
362,596;  192,600;  144,200;    0,000
362,608;   81,600;   13,300;    0,000
362,619;  169,100;  122,600;    0,000
362,631; -172,900; -143,400;    0,000
362,643;  258,800;  218,600;    0,000
362,655; -167,600; -134,400;    0,000
362,666;  126,800;   98,700;    0,000
362,678;  114,500;   81,100;    0,000
362,690;  285,300;  241,800;    0,000
362,702;  -86,700;  -49,600;    0,000
362,713; -222,300; -194,500;    0,000
362,725;   19,100;   -1,900;    0,000
362,737; -139,000; -121,700;    0,000
362,748;  186,500;  153,800;    0,000
362,760;  143,800;   68,700;    0,000
362,772;   76,900;   40,000;    0,000
362,784;  113,400;  112,700;    0,000
362,795; -133,300; -118,600;    0,000
362,807;  -93,800;  -51,900;    0,000
362,819;  123,400;   68,400;    0,000
362,830;  225,100;  196,000;    0,000
362,842;  162,600;   89,200;    0,000
362,854;   98,900;   72,800;    0,000
362,865;  -62,500;  -54,300;    0,000
362,877;  147,400;  134,800;    0,000
362,889;    0,500;  -10,300;    0,000
362,900;  -98,700;  -74,700;    0,000
362,912; -258,500; -210,300;    0,000
362,924;  508,400;  390,700;    0,000
362,935;  143,900;  114,400;    0,000
362,947;   78,600;   26,800;    0,000
362,959;  -21,500;  -27,800;    0,000
362,970;  316,100;  287,400;    0,000
362,982;   -7,200;  -25,400;    0,000
362,994;  131,800;   97,100;    0,000
363,005;  118,400;   73,200;    0,000
363,017;  145,600;  137,200;    0,000
363,029;  -72,500;  -59,400;    0,000
363,040;  144,400;  123,300;    0,000
363,052; -180,700; -140,800;    0,000
363,063;  -34,800;  -31,100;    0,000
363,075;  -12,600;  -16,400;    0,000
363,087;  144,300;  126,200;    0,000
363,098; -145,400; -136,800;    0,000
363,110;  335,400;  282,800;    0,000
363,122; -316,400; -245,200;    0,000
363,133;   91,700;   94,400;    0,000
363,145;  -56,800;  -65,000;    0,000
363,156;  162,300;  173,800;    0,000
363,168;   -5,100;   -8,000;    0,000
363,180; -119,000;  -96,200;    0,000
363,191; -100,600;  -79,000;    0,000
363,203;  302,000;  265,300;    0,000
363,214;   95,100;   80,200;    0,000
363,226;  -68,300;  -65,200;    0,000
363,237;  -95,000;  -92,300;    0,000
363,249;   38,000;   43,900;    0,000
363,261; -131,500;  -80,500;    0,000
363,272;  799,100;  612,000;    0,000
363,284;  141,100;   73,200;    0,000
363,295;  107,700;   92,100;    0,000
363,307; -165,500; -123,100;    0,000
363,319;  336,200;  276,700;    0,000
363,330;   58,600;   60,200;    0,000
363,342;  165,900;  129,200;    0,000
363,353;   45,400;   49,600;    0,000
363,365;   13,100;  -34,600;    0,000
363,376;  115,700;   81,900;    0,000
363,388;  479,400;  409,000;    0,000
363,399;  117,200;   74,500;    0,000
363,411;  -30,600;  -39,800;    0,000
363,422;  -72,800;  -68,300;    0,000
363,434;  141,900;  171,200;    0,000
363,446;   79,100;   87,700;    0,000
363,457;  164,000;  128,700;    0,000
363,469;  -16,300;    8,300;    0,000
363,480; -105,000;  -97,000;    0,000
363,492; -123,600; -126,900;    0,000
363,503; -134,400;  -79,500;    0,000
363,515; -120,800;  -91,600;    0,000
363,526;  329,600;  273,700;    0,000
363,538;   -8,500;  -21,200;    0,000
363,549;  465,700;  388,600;    0,000
363,561; -161,200; -156,800;    0,000
363,572;  428,600;  375,300;    0,000
363,584; -123,700; -112,000;    0,000
363,595;  141,900;  122,700;    0,000
363,607;  103,200;   78,400;    0,000
363,618;  352,000;  271,600;    0,000
363,630; -345,400; -285,800;    0,000
363,641;   51,500;   10,000;    0,000
363,653;  -79,700;  -90,800;    0,000
363,664;  294,800;  221,300;    0,000
363,676;  154,600;  111,000;    0,000
363,687;   94,600;   72,500;    0,000
363,699;  -63,300;  -28,800;    0,000
363,710;   46,900;   55,800;    0,000
363,721; -413,400; -327,200;    0,000
363,733;   -0,800;   -2,900;    0,000
363,744;  -48,800;  -61,100;    0,000
363,756; -148,400; -120,000;    0,000
363,767;  -13,000;  -44,900;    0,000
363,779;    4,500;    5,600;    0,000
363,790;   16,300;   15,600;    0,000
363,802;  102,400;  119,800;    0,000
363,813;  -36,800;  -16,200;    0,000
363,824;  187,600;  158,700;    0,000
363,836; -217,000; -173,700;    0,000
363,847;  807,200;  989,100;    0,000
363,859;    7,200;   17,400;    0,000
363,870; -102,800;  -89,800;    0,000
363,882; -152,500; -134,400;    0,000
363,893;   22,000;   17,600;    0,000
363,904;   43,500;   26,900;    0,000
363,916; -249,100; -180,500;    0,000
363,927; -120,900; -106,100;    0,000
363,939;   54,600;   63,300;    0,000
363,950; -235,500; -176,000;    0,000
363,962;   88,600;   57,800;    0,000
363,973;  -28,400;  -19,200;    0,000
363,984;  170,600;  133,500;    0,000
363,996;   35,900;   31,200;    0,000
364,007;   18,700;   30,400;    0,000
364,018; -220,000; -160,100;    0,000
364,030;   97,400;   24,900;    0,000
364,041; -177,100; -121,900;    0,000
364,053;  280,100;  224,300;    0,000
364,064; -219,900; -165,700;    0,000
364,075;  116,600;   91,700;    0,000
364,087;   76,000;   68,000;    0,000
364,098;   13,700;  -37,300;    0,000
364,109; -143,600; -128,000;    0,000
364,121;  250,100;  182,500;    0,000
364,132;  -40,900;  -33,600;    0,000
364,144; -106,900;  -58,400;    0,000
364,155;  354,300;  271,600;    0,000
364,166;  219,900;  168,500;    0,000
364,178; -206,700; -200,400;    0,000
364,189;  111,400;   71,400;    0,000
364,200;   76,200;   70,800;    0,000
364,212;  159,200;  140,500;    0,000
364,223;    3,800;   -9,200;    0,000
364,234;  335,200;  255,100;    0,000
364,246;  -22,900;  -46,900;    0,000
364,257; -196,000; -147,600;    0,000
364,268;  -33,400;  -22,500;    0,000
364,280;  227,400;  183,700;    0,000
364,291; -282,200; -226,600;    0,000
364,302;  -92,600;  -63,800;    0,000
364,314;    5,100;  -15,300;    0,000
364,325; -125,800;  -91,200;    0,000
364,336;  474,300;  364,000;    0,000
364,347;  227,500;  185,200;    0,000
364,359;   12,000;   25,000;    0,000
364,370;   68,000;    4,900;    0,000
364,381; -111,000; -113,400;    0,000
364,393;  431,000;  332,200;    0,000
364,404;  189,800;  183,600;    0,000
364,415;  214,300;  200,300;    0,000
364,426; -222,400; -177,300;    0,000
364,438;   33,600;   51,000;    0,000
364,449;  239,900;  185,800;    0,000
364,460;  239,600;  164,900;    0,000
364,472;  -44,000;  -33,900;    0,000
364,483;  262,300;  220,300;    0,000
364,494; -108,700;  -88,900;    0,000
364,505;   34,900;   15,200;    0,000
364,517; -140,600; -103,700;    0,000
364,528;  253,200;  235,000;    0,000
364,539;   25,600;   22,900;    0,000
364,550;   51,300;   13,700;    0,000
364,562; -104,700; -120,900;    0,000
364,573; -135,700;  -99,200;    0,000
364,584;  -43,900;  -52,700;    0,000
364,595;  -64,300;  -41,100;    0,000
364,607;  -78,400; -100,500;    0,000
364,618; -274,000; -189,500;    0,000
364,629; -212,500; -203,900;    0,000
364,640;  213,300;  164,600;    0,000
364,652;  153,000;  101,200;    0,000
364,663;  193,200;  164,300;    0,000
364,674;   50,600;   43,200;    0,000
364,685;   -7,700;  -30,200;    0,000
364,696;  -82,400;  -78,000;    0,000
364,708;  -39,900;    4,000;    0,000
364,719;   -3,600;   30,400;    0,000
364,730;  370,500;  305,700;    0,000
364,741;  133,100;   77,500;    0,000
364,752;  232,600;  172,700;    0,000
364,764;  -91,500;  -69,300;    0,000
364,775;   41,800;   27,300;    0,000
364,786; -129,100; -115,200;    0,000
364,797; -206,600; -144,200;    0,000
364,808; -100,700;  -60,400;    0,000
364,820;  191,400;  119,900;    0,000
364,831; -443,400; -326,300;    0,000
364,842;  143,100;  142,000;    0,000
364,853; -255,700; -214,200;    0,000
364,864; -113,800; -114,400;    0,000
364,875; -162,800; -158,700;    0,000
364,887; -179,600; -116,900;    0,000
364,898;   40,800;   31,200;    0,000
364,909;   83,400;   42,000;    0,000
364,920; -126,900; -106,700;    0,000
364,931; -122,600; -118,800;    0,000
364,942; -119,200;  -74,600;    0,000
364,953; -342,600; -279,200;    0,000
364,965;   81,900;   40,700;    0,000
364,976;  252,400;  203,700;    0,000
364,987;   16,200;   24,400;    0,000
364,998;   99,300;   57,500;    0,000
365,009;  -97,600;  -83,100;    0,000
365,020;  156,000;  123,200;    0,000
365,031;  -70,900; -114,000;    0,000
365,042;   85,400;   83,500;    0,000
365,054;   28,700;   -3,800;    0,000
365,065;  229,000;  180,100;    0,000
365,076; -116,200;  -66,200;    0,000
365,087;  185,300;  154,600;    0,000
365,098; -291,100; -221,400;    0,000
365,109;  203,500;  158,300;    0,000
365,120;  -96,500;  -41,800;    0,000
365,131;  436,600;  347,900;    0,000
365,142;   76,600;   17,900;    0,000
365,154;  109,500;  111,900;    0,000
365,165; -136,100; -109,500;    0,000
365,176;  408,900;  290,800;    0,000
365,187;  -76,800;  -36,900;    0,000
365,198;   33,600;   41,100;    0,000
365,209;  124,100;  151,200;    0,000
365,220;   44,100;   17,100;    0,000
365,231; -195,400; -164,700;    0,000
365,242;  131,500;  111,400;    0,000
365,253; -318,800; -235,300;    0,000
365,264;   57,900;   56,600;    0,000
365,275;   67,800;   95,600;    0,000
365,286;   59,300;   61,000;    0,000
365,297; -268,500; -190,100;    0,000
365,309;  -92,600;  -86,500;    0,000
365,320;  -45,000;  -35,000;    0,000
365,331;   59,500;   58,200;    0,000
365,342;   49,700;   53,200;    0,000
365,353;  172,000;  144,300;    0,000
365,364; -345,800; -315,900;    0,000
365,375;   87,400;   76,100;    0,000
365,386; -285,500; -241,300;    0,000
365,397;   85,100;   57,900;    0,000
365,408;  193,300;  150,100;    0,000
365,419;   24,400;   44,900;    0,000
365,430;  -85,100;  -91,900;    0,000
365,441;  175,400;  134,200;    0,000
365,452; -305,000; -251,700;    0,000
365,463; -347,400; -244,800;    0,000
365,474;   66,800;   85,700;    0,000
365,485;  157,300;   94,000;    0,000
365,496;  194,100;  140,300;    0,000
365,507;  134,800;   89,100;    0,000
365,518;  -57,300;  -38,300;    0,000
365,529;  -18,600;   -7,500;    0,000
365,540;  -59,600;  -44,000;    0,000
365,551;  -44,700;    4,900;    0,000
365,562;  -44,500;  -42,700;    0,000
365,573;   48,300;   35,100;    0,000
365,584; -181,700; -155,800;    0,000
365,595;  502,700;  420,500;    0,000
365,606; -192,100; -143,000;    0,000
365,617;   36,000;   15,700;    0,000
365,628; -207,700; -176,700;    0,000
365,639;  293,400;  277,200;    0,000
365,650;    7,700;   18,300;    0,000
365,661;   21,200;   36,000;    0,000
365,672; -287,800; -225,300;    0,000
365,682; -104,800;  -75,100;    0,000
365,693; -273,200; -229,500;    0,000
365,704; -328,200; -236,900;    0,000
365,715;  -97,400;  -71,000;    0,000
365,726;   82,800;   36,900;    0,000
365,737; -355,500; -268,600;    0,000
365,748;  140,700;  122,400;    0,000
365,759; -196,800; -174,400;    0,000
365,770;  -18,000;  -13,000;    0,000
365,781;  -75,000;  -76,000;    0,000
365,792;   20,300;   13,400;    0,000
365,803;  229,100;  181,500;    0,000
365,814;  -57,200;  -43,100;    0,000
365,825;  113,200;  102,200;    0,000
365,836;  308,900;  262,400;    0,000
365,846; -295,000; -232,600;    0,000
365,857;  272,200;  238,900;    0,000
365,868;  374,600;  331,900;    0,000
365,879;  282,400;  227,200;    0,000
365,890;  150,100;  117,300;    0,000
365,901;  365,600;  339,900;    0,000
365,912;  -74,400;  -31,600;    0,000
365,923;  216,400;  173,000;    0,000
365,934;  233,000;  190,000;    0,000
365,944;  317,900;  271,000;    0,000
365,955;  203,000;  151,400;    0,000
365,966;   60,300;   24,600;    0,000
365,977; -378,900; -272,000;    0,000
365,988; -134,400;  -96,400;    0,000
365,999;  256,800;  235,800;    0,000
366,010;  202,000;  160,000;    0,000
366,021; -283,500; -244,700;    0,000
366,031;   72,800;   71,200;    0,000
366,042; -286,100; -252,000;    0,000
366,053; -239,500; -215,300;    0,000
366,064;    5,900;    4,300;    0,000
366,075;  196,500;  179,100;    0,000
366,086;   54,400;   26,000;    0,000
366,096;  139,900;  105,500;    0,000
366,107;  -27,300;  -48,000;    0,000
366,118;   -9,900;   -8,400;    0,000
366,129; -110,100;  -96,300;    0,000
366,140;  118,300;   80,800;    0,000
366,151; -163,400; -123,700;    0,000
366,161;  150,800;  112,700;    0,000
366,172; -197,200; -157,600;    0,000
366,183;  123,400;   94,200;    0,000
366,194;  283,800;  180,500;    0,000
366,205;  -13,000;  -32,600;    0,000
366,215;  -92,200; -113,100;    0,000
366,226;  187,300;  130,600;    0,000
366,237;  209,900;  154,900;    0,000
366,248;  -70,000;  -54,200;    0,000
366,259;  356,500;  334,400;    0,000
366,269;  121,500;   86,800;    0,000
366,280;  -46,700;  -44,700;    0,000
366,291; -204,700; -147,400;    0,000
366,302;  170,700;  108,600;    0,000
366,313;   -3,900;    7,500;    0,000
366,323;  -17,300;   -0,400;    0,000
366,334; -108,100;  -81,800;    0,000
366,345; -132,400; -111,000;    0,000
366,356; -156,600; -115,400;    0,000
366,366; -173,000; -154,900;    0,000
366,377;  308,900;  228,000;    0,000
366,388; -125,300;  -89,000;    0,000
366,399;  173,000;  158,800;    0,000
366,409;  -90,100;  -81,300;    0,000
366,420;  111,700;  134,100;    0,000
366,431;  411,200;  328,500;    0,000
366,442;  140,300;  112,400;    0,000
366,452; -186,800; -158,400;    0,000
366,463;  122,600;  131,700;    0,000
366,474;  -20,500;  -32,400;    0,000
366,485; -244,900; -195,100;    0,000
366,495;   14,600;  -16,100;    0,000
366,506;  445,500;  368,700;    0,000
366,517; -105,700;  -89,400;    0,000
366,528;  144,500;  103,200;    0,000
366,538;    6,400;   -4,900;    0,000
366,549; -192,100; -153,400;    0,000
366,560; -284,800; -222,100;    0,000
366,570;  400,700;  298,200;    0,000
366,581;   74,300;   52,800;    0,000
366,592;  272,400;  205,000;    0,000
366,603;  201,100;  176,800;    0,000
366,613;   11,000;    7,000;    0,000
366,624; -211,700; -179,500;    0,000
366,635;   79,700;  103,900;    0,000
366,645;  -96,000;  -59,000;    0,000
366,656;   48,100;   41,700;    0,000
366,667;  -75,600;  -53,000;    0,000
366,677;  163,300;  135,500;    0,000
366,688;  106,100;   58,000;    0,000
366,699;  330,500;  249,600;    0,000
366,709; -143,800; -113,700;    0,000
366,720;  -62,800;  -46,700;    0,000
366,731;  187,200;  141,300;    0,000
366,741;  157,500;  145,900;    0,000
366,752;  -72,600;  -60,800;    0,000
366,763;  183,200;  153,100;    0,000
366,773;  -53,300;  -29,300;    0,000
366,784;  -53,100;  -44,800;    0,000
366,795;  -37,100;  -67,400;    0,000
366,805; -102,000;  -63,900;    0,000
366,816;  472,200;  422,700;    0,000
366,827;   82,900;   86,500;    0,000
366,837;  185,200;  119,700;    0,000
366,848;   67,600;   66,400;    0,000
366,858;   31,500;    1,600;    0,000
366,869;  143,500;  122,900;    0,000
366,880; -156,400; -142,700;    0,000
366,890;  225,300;  194,800;    0,000
366,901; -118,900;  -91,600;    0,000
366,912;  366,400;  290,500;    0,000
366,922;  267,400;  176,800;    0,000
366,933;  368,400;  338,800;    0,000
366,943; -267,500; -200,900;    0,000
366,954;  182,200;  123,100;    0,000
366,965;  125,300;   79,600;    0,000
366,975;  111,000;   65,400;    0,000
366,986; -128,200; -125,800;    0,000
366,996;  211,500;  180,800;    0,000
367,007; -130,800; -108,700;    0,000
367,018;  173,800;  150,800;    0,000
367,028; -173,900; -142,000;    0,000
367,039;   37,000;   67,000;    0,000
367,049;  -58,300;  -30,200;    0,000
367,060;   60,900;   33,700;    0,000
367,070;   15,600;   -5,900;    0,000
367,081;  276,500;  208,300;    0,000
367,092;  -42,800;  -68,000;    0,000
367,102;  -98,200;  -63,000;    0,000
367,113; -338,200; -274,200;    0,000
367,123;  -92,900;  -73,600;    0,000
367,134;  141,200;  117,000;    0,000
367,144;  231,900;  145,000;    0,000
367,155;  109,500;  104,700;    0,000
367,165;  144,800;  160,000;    0,000
367,176; -138,500; -130,900;    0,000
367,186; -104,100;  -52,700;    0,000
367,197;  101,100;  120,500;    0,000
367,208;  107,400;   79,100;    0,000
367,218;  -13,600;   -9,000;    0,000
367,229;   11,100;   39,000;    0,000
367,239;  113,200;   98,000;    0,000
367,250;   12,500;   11,000;    0,000
367,260;  132,800;  109,100;    0,000
367,271;  -79,300;  -52,300;    0,000
367,281; -117,900; -104,500;    0,000
367,292;   -0,500;    1,900;    0,000
367,302;  -29,800;  -17,600;    0,000
367,313;  241,300;  197,300;    0,000
367,323; -113,500;  -94,600;    0,000
367,334;  243,700;  201,500;    0,000
367,344; -252,900; -200,200;    0,000
367,355; -126,800; -100,800;    0,000
367,365;   51,800;   49,100;    0,000
367,376;  206,200;  183,600;    0,000
367,386;  146,400;   88,800;    0,000
367,397;   45,100;   44,400;    0,000
367,407; -388,200; -299,000;    0,000
367,418;  -56,500;  -39,600;    0,000
367,428;  -45,900;  -55,000;    0,000
367,438;  294,600;  238,800;    0,000
367,449;   39,900;    2,800;    0,000
367,459;  376,700;  266,100;    0,000
367,470; -158,800; -118,400;    0,000
367,480;  185,800;  134,800;    0,000
367,491;  240,300;  181,600;    0,000
367,501;  433,400;  341,900;    0,000
367,512; -108,200; -108,200;    0,000
367,522;  142,200;  118,400;    0,000
367,533;  -87,100;  -95,200;    0,000
367,543;  465,100;  336,200;    0,000
367,553; -296,800; -224,400;    0,000
367,564; -116,200; -138,300;    0,000
367,574;   -9,800;   -6,600;    0,000
367,585;  175,000;  137,200;    0,000
367,595; -124,900; -139,100;    0,000
367,605;    6,200;    8,000;    0,000
367,616;   11,800;   43,700;    0,000
367,626;  504,000;  389,700;    0,000
367,637;  -80,400;  -88,900;    0,000
367,647;  126,600;  138,200;    0,000
367,658;  164,800;  127,900;    0,000
367,668;  171,700;  138,800;    0,000
367,678;   43,000;   36,900;    0,000
367,689;  141,900;  125,700;    0,000
367,699;  311,400;  269,900;    0,000
367,710;  190,600;  185,200;    0,000
367,720;   68,400;   17,400;    0,000
367,730; -145,500; -115,900;    0,000
367,741;  -45,800;  -20,300;    0,000
367,751;  239,400;  176,400;    0,000
367,761;  293,100;  199,000;    0,000
367,772;   96,000;   97,400;    0,000
367,782;  122,000;   91,500;    0,000
367,793; -169,200; -142,500;    0,000
367,803;  122,100;  105,700;    0,000
367,813;  -48,300;  -39,600;    0,000
367,824; -203,100; -197,100;    0,000
367,834;  403,900;  319,000;    0,000
367,844;  233,800;  123,000;    0,000
367,855;  -62,800;  -45,000;    0,000
367,865; -113,800;  -85,000;    0,000
367,875;  -77,100;  -70,500;    0,000
367,886;  -25,200;  -34,100;    0,000
367,896;   80,600;   62,300;    0,000
367,906; -301,600; -262,400;    0,000
367,917;  124,200;   90,600;    0,000
367,927; -274,100; -233,800;    0,000
367,937;   89,300;   65,900;    0,000
367,948; -112,100;  -95,600;    0,000
367,958;   85,400;   83,200;    0,000
367,968;  168,800;  139,400;    0,000
367,979;  260,500;  241,400;    0,000
367,989;  130,000;  132,200;    0,000
367,999; -103,700;  -77,500;    0,000
368,009; -239,200; -177,400;    0,000
368,020; 1212,400;  978,500;    0,000
368,030;  278,100;  251,400;    0,000
368,040;  -19,000;  -12,100;    0,000
368,051;   53,100;   42,700;    0,000
368,061;   72,700;   52,900;    0,000
368,071;  201,300;  187,100;    0,000
368,082; -194,800; -129,100;    0,000
368,092;  -85,700;  -43,500;    0,000
368,102;  254,400;  259,700;    0,000
368,112; -110,600;  -95,400;    0,000
368,123;  121,900;   94,900;    0,000
368,133;  -20,700;  -10,200;    0,000
368,143; -123,300;  -76,300;    0,000
368,153; -145,700;  -93,200;    0,000
368,164;  -37,400;  -17,900;    0,000
368,174;  134,100;   65,300;    0,000
368,184;  130,400;  128,200;    0,000
368,194;  -20,100;    2,400;    0,000
368,205;  266,900;  256,400;    0,000
368,215;  240,000;  190,500;    0,000
368,225;  -85,800;  -39,300;    0,000
368,235;  126,100;   85,900;    0,000
368,246; -110,100;  -65,700;    0,000
368,256;  -65,600;  -27,200;    0,000
368,266;   27,700;   52,100;    0,000
368,276;  -35,700;   -4,900;    0,000
368,286;  149,300;  103,500;    0,000
368,297; -220,500; -186,700;    0,000
368,307;  228,000;  226,800;    0,000
368,317; -330,000; -249,700;    0,000
368,327;  -67,000;  -56,400;    0,000
368,338;  158,200;   93,000;    0,000
368,348;  155,100;  136,800;    0,000
368,358;   34,300;   30,800;    0,000
368,368; -275,800; -207,900;    0,000
368,378;  -26,400;  -43,000;    0,000
368,389;  343,800;  264,100;    0,000
368,399;  133,400;   74,700;    0,000
368,409;  251,600;  168,400;    0,000
368,419;   23,900;   30,200;    0,000
368,429;  184,300;  150,300;    0,000
368,439;  -52,400;  -41,200;    0,000
368,450;  310,800;  225,300;    0,000
368,460;  231,200;  167,600;    0,000
368,470;    9,000;    6,200;    0,000
368,480; -145,800; -115,800;    0,000
368,490; -259,300; -192,200;    0,000
368,500;  135,000;  105,700;    0,000
368,511;  284,000;  244,700;    0,000
368,521; -185,600; -170,700;    0,000
368,531;  262,400;  187,700;    0,000
368,541;  -86,100;  -55,700;    0,000
368,551;   35,200;   68,700;    0,000
368,561; -195,000; -150,900;    0,000
368,571;  569,000;  447,300;    0,000
368,582; -216,700; -158,900;    0,000
368,592;  -81,500;  -63,300;    0,000
368,602; -390,900; -279,100;    0,000
368,612;  314,200;  233,900;    0,000
368,622;    5,400;  -13,100;    0,000
368,632;   41,100;   41,000;    0,000
368,642;   45,500;   83,000;    0,000
368,652;  -33,800;  -74,800;    0,000
368,663; -243,800; -189,700;    0,000
368,673;  331,400;  300,100;    0,000
368,683;  -46,100;  -11,400;    0,000
368,693;  -95,100;  -47,400;    0,000
368,703;   39,200;   19,800;    0,000
368,713;   80,400;   70,200;    0,000
368,723; -213,400; -189,000;    0,000
368,733; -138,500; -108,700;    0,000
368,743;   29,100;   32,400;    0,000
368,753;  -30,900;    0,600;    0,000
368,763; -175,900; -108,900;    0,000
368,774;  291,500;  227,200;    0,000
368,784; -100,800;  -81,700;    0,000
368,794;  270,000;  258,800;    0,000
368,804; -106,900;  -73,300;    0,000
368,814;  -86,600;  -67,200;    0,000
368,824;   32,700;  -11,300;    0,000
368,834;  -15,400;   21,000;    0,000
368,844;  196,700;  152,700;    0,000
368,854;  223,900;  147,900;    0,000
368,864; -199,100; -193,800;    0,000
368,874; -195,900; -148,900;    0,000
368,884; -217,500; -194,800;    0,000
368,894; -111,200; -107,500;    0,000
368,904; -192,900; -180,100;    0,000
368,914;  231,400;  256,700;    0,000
368,924;   29,800;   -9,400;    0,000
368,934;  168,000;  188,000;    0,000
368,944;    9,500;  -26,300;    0,000
368,954;  286,200;  253,500;    0,000
368,964;  286,900;  210,500;    0,000
368,974; -288,200; -223,800;    0,000
368,984;    2,800;  -27,100;    0,000
368,995;  211,500;  195,600;    0,000
369,005; -249,300; -193,800;    0,000
369,014;  -91,400; -101,100;    0,000
369,025; -106,800;  -85,000;    0,000
369,035;    7,500;   -6,100;    0,000
369,044;   -1,900;   32,800;    0,000
369,055;   -4,600;   12,100;    0,000
369,064; -355,700; -258,000;    0,000
369,074;  474,700;  400,000;    0,000
369,084;  -48,900;  -60,100;    0,000
369,094; -176,700; -144,200;    0,000
369,104;  283,400;  170,200;    0,000
369,114;  291,800;  263,900;    0,000
369,124; -147,200; -108,300;    0,000
369,134;  -97,600;  -74,700;    0,000
369,144;  228,000;  153,200;    0,000
369,154;   87,600;   64,900;    0,000
369,164;  106,500;   96,900;    0,000
369,174;   58,700;   84,700;    0,000
369,184;  198,500;  142,600;    0,000
369,194;  209,800;  198,300;    0,000
369,204;  -73,000;  -58,300;    0,000
369,214;   98,700;   71,900;    0,000
369,224;  -15,100;  -20,500;    0,000
369,234; -336,500; -224,600;    0,000
369,244;   63,500;   90,300;    0,000
369,254; -183,900; -141,500;    0,000
369,264;   30,300;   10,600;    0,000
369,274;   -9,100;   24,700;    0,000
369,284; -159,400; -161,400;    0,000
369,293;   72,500;   50,400;    0,000
369,303;  224,700;  131,500;    0,000
369,313;  285,700;  242,800;    0,000
369,323;  128,500;   91,700;    0,000
369,333;  288,000;  227,200;    0,000
369,343; -285,100; -183,600;    0,000
369,353; -109,900;  -55,300;    0,000
369,363; -105,600; -115,200;    0,000
369,373;  100,700;   60,000;    0,000
369,383;  252,300;  154,300;    0,000
369,392;  151,000;  174,700;    0,000
369,402; -204,700; -122,000;    0,000
369,412; -168,400; -115,000;    0,000
369,422;   78,700;   20,900;    0,000
369,432; -120,900;  -51,300;    0,000
369,442;    5,300;    1,300;    0,000
369,452;   26,200;   -3,300;    0,000
369,462;  -89,000;  -66,100;    0,000
369,471; -157,100; -132,600;    0,000
369,481; -331,400; -278,900;    0,000
369,491;  210,900;  156,200;    0,000
369,501; -116,300;  -79,600;    0,000
369,511;  -54,100;  -72,000;    0,000
369,521; -110,200;  -81,100;    0,000
369,531;  304,200;  235,400;    0,000
369,540;  208,000;  115,200;    0,000
369,550;   -4,600;   24,300;    0,000
369,560;  189,600;  130,500;    0,000
369,570;  125,100;  102,200;    0,000
369,580; -317,000; -280,100;    0,000
369,590;  195,300;  206,600;    0,000
369,599; -210,800; -180,900;    0,000
369,609;  -46,500;  -30,300;    0,000
369,619; -129,600; -105,100;    0,000
369,629; -141,400; -107,100;    0,000
369,639;  -16,700;  -16,700;    0,000
369,649;  176,700;  147,300;    0,000
369,658; -318,100; -262,400;    0,000
369,668;  243,000;  232,400;    0,000
369,678; -236,100; -183,700;    0,000
369,688;   54,300;   28,900;    0,000
369,698; -286,200; -244,100;    0,000
369,707;   83,000;   85,100;    0,000
369,717;   73,600;   25,500;    0,000
369,727;    2,200;   15,700;    0,000
369,737;  332,100;  234,400;    0,000
369,747;  135,400;  115,000;    0,000
369,756;   80,900;   81,500;    0,000
369,766;  190,100;  154,000;    0,000
369,776;  162,400;  104,400;    0,000
369,786;  420,800;  340,800;    0,000
369,795;  -28,000;  -35,100;    0,000
369,805;   28,000;   31,500;    0,000
369,815; -218,700; -194,200;    0,000
369,825;  206,800;  180,000;    0,000
369,834;   18,300;   60,000;    0,000
369,844;  348,900;  251,600;    0,000
369,854;  -50,200;  -31,500;    0,000
369,864;  333,000;  310,400;    0,000
369,873;    6,700;    6,600;    0,000
369,883;  169,600;  112,900;    0,000
369,893; -172,000; -143,100;    0,000
369,903; -198,100; -132,500;    0,000
369,912;  123,000;  118,800;    0,000
369,922;  484,600;  390,800;    0,000
369,932;   50,100;   57,900;    0,000
369,942;  -31,700;  -33,200;    0,000
369,951; -155,900; -135,800;    0,000
369,961;  -46,100;  -27,900;    0,000
369,971; -273,900; -237,300;    0,000
369,980;    9,100;   -2,600;    0,000
369,990; -230,200; -191,500;    0,000
370,000;  199,600;  126,100;    0,000
370,009; -139,100; -125,000;    0,000
370,019;   -1,500;   -1,500;    0,000
370,029; -223,900; -211,300;    0,000
370,039;  122,500;   87,100;    0,000
370,048;  115,100;   65,000;    0,000
370,058;  236,100;  210,200;    0,000
370,068;   28,600;   32,200;    0,000
370,077; -126,600;  -98,000;    0,000
370,087; -391,400; -334,100;    0,000
370,097;   66,500;   46,600;    0,000
370,106;  142,600;  119,600;    0,000
370,116;  102,300;   81,300;    0,000
370,126; -257,600; -248,600;    0,000
370,135;   62,500;   80,700;    0,000
370,145;  -12,800;    3,100;    0,000
370,155;  345,400;  280,600;    0,000
370,164;  317,500;  209,500;    0,000
370,174;  247,300;  205,400;    0,000
370,184;   82,200;  153,000;    0,000
370,193;   41,900;   19,400;    0,000
370,203; -315,700; -248,100;    0,000
370,212;  113,600;  120,800;    0,000
370,222; -109,000;  -79,300;    0,000
370,232;  -23,600;   -9,800;    0,000
370,241;  138,700;   95,500;    0,000
370,251;  309,100;  283,900;    0,000
370,261; -191,600; -169,600;    0,000
370,270;   45,100;   19,300;    0,000
370,280;  -41,700;  -55,000;    0,000
370,289;   56,400;   60,400;    0,000
370,299; -261,500; -214,000;    0,000
370,309;   70,000;   35,600;    0,000
370,318; -168,800; -142,500;    0,000
370,328;  211,200;  183,600;    0,000
370,337; -192,900; -149,100;    0,000
370,347;  342,800;  261,900;    0,000
370,357;  245,100;  151,500;    0,000
370,366;  253,100;  212,400;    0,000
370,376;  -11,600;   -8,100;    0,000
370,385;  -20,400;  -36,900;    0,000
370,395; -166,600; -128,500;    0,000
370,405;  -42,700;  -15,900;    0,000
370,414; -140,600; -112,200;    0,000
370,424; -144,900; -114,200;    0,000
370,433;    6,900;  -29,200;    0,000
370,443;   54,000;   70,300;    0,000
370,452; -141,100;  -91,000;    0,000
370,462;    8,800;    5,200;    0,000
370,472; -189,800; -153,900;    0,000
370,481;  259,700;  290,400;    0,000
370,491;  -25,000;  -26,000;    0,000
370,500;  206,300;  138,000;    0,000
370,510; -178,000; -122,600;    0,000
370,519;  190,800;  191,600;    0,000
370,529; -264,600; -209,800;    0,000
370,538;  482,200;  350,800;    0,000
370,548;  -26,700;  -51,200;    0,000
370,557;  -47,900;  -27,000;    0,000
370,567;  -88,100;  -70,400;    0,000
370,576;  168,900;  141,900;    0,000
370,586; -408,600; -332,700;    0,000
370,595;  115,400;  108,800;    0,000
370,605; -376,300; -317,000;    0,000
370,615;  169,200;  138,000;    0,000
370,624;   66,000;   24,600;    0,000
370,634;  -43,600;   -7,300;    0,000
370,643;  -85,600;  -59,000;    0,000
370,653;  190,500;  166,900;    0,000
370,662; -160,800; -131,700;    0,000
370,672;  227,200;  253,400;    0,000
370,681;  177,200;  168,500;    0,000
370,690;  -15,700;  -22,400;    0,000
370,700; -278,000; -235,300;    0,000
370,709;  259,800;  270,500;    0,000
370,719;  -50,100;  -21,100;    0,000
370,728;  176,900;  154,200;    0,000
370,738;  126,900;  101,500;    0,000
370,747;   10,700;   68,000;    0,000
370,757; -186,900; -141,100;    0,000
370,766; -166,000; -132,000;    0,000
370,776; -373,100; -291,700;    0,000
370,785;   51,300;   91,700;    0,000
370,795;   38,300;   52,800;    0,000
370,804;  -42,400;  -17,200;    0,000
370,814;  -67,400;  -66,800;    0,000
370,823;  219,300;  206,700;    0,000
370,832;  -53,200;  -21,900;    0,000
370,842; -167,800; -109,300;    0,000
370,851; -211,400; -196,900;    0,000
370,861; -140,600; -133,100;    0,000
370,870; -178,600; -143,300;    0,000
370,880;   27,100;   20,000;    0,000
370,889;   95,900;   42,100;    0,000
370,898;   76,800;   32,500;    0,000
370,908;   32,800;   32,400;    0,000
370,917;  440,300;  332,400;    0,000
370,927; -187,400; -169,000;    0,000
370,936; -212,000; -126,900;    0,000
370,945;  189,100;  148,900;    0,000
370,955;  232,700;  184,900;    0,000
370,964; -207,600; -146,000;    0,000

