
Integration time [ms]: 600,000
Averaging Nr. [scans]: 1
Smoothing Nr. [pixels]: 0
Data measured with spectrometer [name]: 1804343U2
Wave   ;Sample   ;Dark     ;Reference;Scope
[nm]   ;[counts] ;[counts] ;[counts] 

318,006;   83,000;   90,000;    0,000
318,025;   61,000;   29,000;    0,000
318,044;  121,000;  181,000;    0,000
318,063; -339,000; -247,000;    0,000
318,082;  226,000;  160,000;    0,000
318,102;   69,000;   13,000;    0,000
318,121;  198,000;  164,000;    0,000
318,140;  -34,000; -135,000;    0,000
318,159;  352,000;  386,000;    0,000
318,179;  -74,000; -118,000;    0,000
318,198;  220,000;  224,000;    0,000
318,217;  486,000;  508,000;    0,000
318,236;  -44,000;   48,000;    0,000
318,255; -153,000; -197,000;    0,000
318,275;  222,000;  251,000;    0,000
318,294; -363,000; -300,000;    0,000
318,313;  550,000;  512,000;    0,000
318,332; -137,000; -124,000;    0,000
318,351;  171,000;   93,000;    0,000
318,370; -242,000; -208,000;    0,000
318,390; -160,000; -188,000;    0,000
318,409;   22,000;   86,000;    0,000
318,428;   -1,000;   14,000;    0,000
318,447; -151,000;  -21,000;    0,000
318,466; -144,000; -128,000;    0,000
318,485; -315,000; -186,000;    0,000
318,505;  156,000;   -3,000;    0,000
318,524; -329,000; -357,000;    0,000
318,543;  232,000;  321,000;    0,000
318,562;  -77,000;  -20,000;    0,000
318,581;   30,000;   47,000;    0,000
318,600;   91,000;  139,000;    0,000
318,620;  333,000;  409,000;    0,000
318,639; -239,000; -249,000;    0,000
318,658;  105,000;  136,000;    0,000
318,677;  120,000;  -78,000;    0,000
318,696;  159,000;   97,000;    0,000
318,715; -210,000; -319,000;    0,000
318,734; -106,000; -145,000;    0,000
318,754;  -10,000;  120,000;    0,000
318,773;   97,000;   23,000;    0,000
318,792; -177,000;  -95,000;    0,000
318,811;  316,000;  154,000;    0,000
318,830; -142,000;  -20,000;    0,000
318,849;  286,000;  280,000;    0,000
318,868;  -34,000; -170,000;    0,000
318,887; -127,000;  -12,000;    0,000
318,906;  117,000;  -35,000;    0,000
318,926;  210,000;   98,000;    0,000
318,945; -156,000;  -54,000;    0,000
318,964;   66,000;   89,000;    0,000
318,983;   32,000;  -10,000;    0,000
319,002;  318,000;  200,000;    0,000
319,021; -252,000; -239,000;    0,000
319,040;   33,000;   -9,000;    0,000
319,059;  208,000;   55,000;    0,000
319,078;  113,000;  131,000;    0,000
319,097;  166,000;  260,000;    0,000
319,117;  -23,000;   70,000;    0,000
319,136;   36,000;  -60,000;    0,000
319,155; -107,000;  -65,000;    0,000
319,174;  378,000;  378,000;    0,000
319,193;   88,000;   58,000;    0,000
319,212; -194,000; -107,000;    0,000
319,231;  -63,000; -100,000;    0,000
319,250;  -52,000;  -20,000;    0,000
319,269;  166,000;  317,000;    0,000
319,288; -151,000; -103,000;    0,000
319,307; -184,000; -190,000;    0,000
319,326;  276,000;  344,000;    0,000
319,345;  291,000;  322,000;    0,000
319,364;   46,000;   47,000;    0,000
319,384;  288,000;  448,000;    0,000
319,403;   53,000;   13,000;    0,000
319,422;  357,000;  452,000;    0,000
319,441;  -31,000;  -77,000;    0,000
319,460;  202,000;  175,000;    0,000
319,479;  -59,000; -138,000;    0,000
319,498;  306,000;  218,000;    0,000
319,517;  156,000;  216,000;    0,000
319,536;  274,000;  225,000;    0,000
319,555;  -58,000; -128,000;    0,000
319,574;  -24,000;  -27,000;    0,000
319,593;  -24,000;  105,000;    0,000
319,612;  239,000;  236,000;    0,000
319,631; -128,000;  -59,000;    0,000
319,650;  524,000;  460,000;    0,000
319,669; -113,000; -109,000;    0,000
319,688;  323,000;  388,000;    0,000
319,707; -201,000; -152,000;    0,000
319,726;  103,000;  188,000;    0,000
319,745; -135,000; -234,000;    0,000
319,764;    9,000;  167,000;    0,000
319,783;  293,000;  296,000;    0,000
319,802; -241,000; -302,000;    0,000
319,821;  181,000;  162,000;    0,000
319,840; -140,000; -121,000;    0,000
319,859;  570,000;  614,000;    0,000
319,878;  352,000;  290,000;    0,000
319,897;  159,000;  287,000;    0,000
319,916;  152,000;  169,000;    0,000
319,935; -107,000; -148,000;    0,000
319,954;  200,000;   73,000;    0,000
319,973;  319,000;  291,000;    0,000
319,992;  211,000;  163,000;    0,000
320,011;  -95,000; -141,000;    0,000
320,030;  258,000;  214,000;    0,000
320,049;    3,000; -109,000;    0,000
320,068;  199,000;  129,000;    0,000
320,087; -101,000;  -50,000;    0,000
320,106;  308,000;  245,000;    0,000
320,125;  -64,000;   97,000;    0,000
320,144;  107,000;   55,000;    0,000
320,163;  101,000;   59,000;    0,000
320,182;  193,000;  185,000;    0,000
320,201;   73,000;   77,000;    0,000
320,220;  193,000;  246,000;    0,000
320,239;  151,000;   94,000;    0,000
320,257;  510,000;  525,000;    0,000
320,276;   46,000;   37,000;    0,000
320,295;  -98,000;   10,000;    0,000
320,314;   16,000;  -77,000;    0,000
320,333;  237,000;  129,000;    0,000
320,352;  -38,000; -129,000;    0,000
320,371;  116,000;  234,000;    0,000
320,390;   56,000;   57,000;    0,000
320,409;   29,000;   45,000;    0,000
320,428; -238,000; -287,000;    0,000
320,447;   58,000;    1,000;    0,000
320,466;  -93,000; -165,000;    0,000
320,485;  213,000;  162,000;    0,000
320,504;  -94,000;  -51,000;    0,000
320,522;   44,000;  -10,000;    0,000
320,541;  212,000;   87,000;    0,000
320,560;  199,000;  171,000;    0,000
320,579; -210,000; -243,000;    0,000
320,598;   42,000;   84,000;    0,000
320,617;  -51,000; -199,000;    0,000
320,636;  -17,000;    5,000;    0,000
320,655;  -35,000;  -72,000;    0,000
320,674;  316,000;  432,000;    0,000
320,693;  212,000;   98,000;    0,000
320,711;   82,000;   62,000;    0,000
320,730; -167,000; -179,000;    0,000
320,749;  460,000;  416,000;    0,000
320,768;  223,000;  272,000;    0,000
320,787;  271,000;  357,000;    0,000
320,806; -198,000; -221,000;    0,000
320,825;  188,000;  250,000;    0,000
320,844; -183,000; -154,000;    0,000
320,862; -131,000;  -12,000;    0,000
320,881;  -67,000; -163,000;    0,000
320,900;  276,000;  247,000;    0,000
320,919;  -97,000; -125,000;    0,000
320,938;   28,000;   57,000;    0,000
320,957;  154,000;   76,000;    0,000
320,976;  310,000;  366,000;    0,000
320,994;   -7,000;  -42,000;    0,000
321,013;  -71,000;   43,000;    0,000
321,032;   41,000; -155,000;    0,000
321,051;  438,000;  472,000;    0,000
321,070;  200,000;  125,000;    0,000
321,089;  310,000;  325,000;    0,000
321,108; -440,000; -360,000;    0,000
321,126;    8,000;  124,000;    0,000
321,145;  178,000;  104,000;    0,000
321,164; -113,000;  -52,000;    0,000
321,183; -146,000; -197,000;    0,000
321,202;  113,000;    4,000;    0,000
321,221; -343,000; -438,000;    0,000
321,239;  -80,000;  -28,000;    0,000
321,258;  185,000;  144,000;    0,000
321,277;  176,000;  123,000;    0,000
321,296; -298,000; -198,000;    0,000
321,315;   38,000;  171,000;    0,000
321,333;   41,000;  -46,000;    0,000
321,352;  -86,000;  -60,000;    0,000
321,371; -243,000; -216,000;    0,000
321,390;  258,000;  209,000;    0,000
321,409;  -34,000; -100,000;    0,000
321,427;   24,000;   33,000;    0,000
321,446;  -40,000; -114,000;    0,000
321,465;  264,000;  264,000;    0,000
321,484; -354,000; -319,000;    0,000
321,503;  392,000;  400,000;    0,000
321,521;   -3,000;   93,000;    0,000
321,540;  215,000;  241,000;    0,000
321,559; -149,000; -150,000;    0,000
321,578; -156,000; -182,000;    0,000
321,597; -147,000; -118,000;    0,000
321,615;   -4,000;   62,000;    0,000
321,634;   13,000;   91,000;    0,000
321,653;   65,000;   -5,000;    0,000
321,672;   31,000;  -35,000;    0,000
321,690;   46,000;  -53,000;    0,000
321,709; -115,000; -225,000;    0,000
321,728;  276,000;  105,000;    0,000
321,747; -170,000; -182,000;    0,000
321,765;  115,000;  108,000;    0,000
321,784;   40,000;  100,000;    0,000
321,803;  316,000;  429,000;    0,000
321,822;  211,000;  189,000;    0,000
321,840;  130,000;   87,000;    0,000
321,859;  221,000;   32,000;    0,000
321,878;  389,000;  302,000;    0,000
321,897;   33,000;   47,000;    0,000
321,915;  -37,000;  -20,000;    0,000
321,934;  -78,000;  -80,000;    0,000
321,953;  270,000;  204,000;    0,000
321,972; -224,000; -161,000;    0,000
321,990;  490,000;  299,000;    0,000
322,009; -287,000; -276,000;    0,000
322,028;  380,000;  326,000;    0,000
322,046;  -74,000; -104,000;    0,000
322,065;  275,000;  271,000;    0,000
322,084;   88,000;   46,000;    0,000
322,103; -136,000; -168,000;    0,000
322,121; -189,000; -245,000;    0,000
322,140;  -68,000;  -48,000;    0,000
322,159;   51,000;  118,000;    0,000
322,177;   -3,000;   11,000;    0,000
322,196;  -93,000;  -86,000;    0,000
322,215; -211,000; -155,000;    0,000
322,234;  -57,000;  -68,000;    0,000
322,252;  229,000;  161,000;    0,000
322,271;   54,000;  -42,000;    0,000
322,290;  153,000;   95,000;    0,000
322,308;  -40,000;   35,000;    0,000
322,327;  273,000;  138,000;    0,000
322,346;  -76,000;  -29,000;    0,000
322,364; -140,000;  -73,000;    0,000
322,383; -124,000;  -90,000;    0,000
322,402;   75,000;  121,000;    0,000
322,420; -124,000; -195,000;    0,000
322,439;   47,000;  137,000;    0,000
322,458; -209,000; -180,000;    0,000
322,476;   25,000;   97,000;    0,000
322,495; -133,000;  -99,000;    0,000
322,514;   33,000;   74,000;    0,000
322,532;  187,000;  195,000;    0,000
322,551;  251,000;  396,000;    0,000
322,570;  376,000;  211,000;    0,000
322,588;  317,000;  284,000;    0,000
322,607; -128,000;  -37,000;    0,000
322,626; -127,000; -195,000;    0,000
322,644;  -19,000;    0,000;    0,000
322,663;  125,000;  161,000;    0,000
322,681; -100,000; -136,000;    0,000
322,700;  369,000;  269,000;    0,000
322,719; -170,000; -111,000;    0,000
322,737;  124,000;   70,000;    0,000
322,756;   22,000;  -33,000;    0,000
322,775; -117,000;  -96,000;    0,000
322,793; -218,000; -247,000;    0,000
322,812;    4,000;   54,000;    0,000
322,831; -145,000; -115,000;    0,000
322,849;  200,000;  141,000;    0,000
322,868;   79,000;   58,000;    0,000
322,886;   10,000;  148,000;    0,000
322,905;   83,000;  131,000;    0,000
322,924;  -51,000;  -16,000;    0,000
322,942; -303,000; -207,000;    0,000
322,961;  291,000;  441,000;    0,000
322,979;  194,000;  180,000;    0,000
322,998;  -39,000;  -85,000;    0,000
323,017; -128,000; -126,000;    0,000
323,035;  -66,000;  -82,000;    0,000
323,054;  -13,000;   21,000;    0,000
323,072;   70,000;  110,000;    0,000
323,091;  -58,000; -110,000;    0,000
323,110;   71,000;  187,000;    0,000
323,128;  272,000;  327,000;    0,000
323,147;  155,000;   80,000;    0,000
323,165;   52,000;   49,000;    0,000
323,184;  646,000;  577,000;    0,000
323,202;  153,000;   78,000;    0,000
323,221;   29,000;  125,000;    0,000
323,240;  -81,000; -136,000;    0,000
323,258;  657,000;  468,000;    0,000
323,277; -128,000; -103,000;    0,000
323,295;  362,000;  317,000;    0,000
323,314;  188,000;   21,000;    0,000
323,332; -119,000; -128,000;    0,000
323,351; -160,000;  -52,000;    0,000
323,369;  203,000;  230,000;    0,000
323,388; -260,000; -315,000;    0,000
323,407;  319,000;  318,000;    0,000
323,425; -220,000; -180,000;    0,000
323,444;  275,000;  140,000;    0,000
323,462;  -43,000;  121,000;    0,000
323,481;  249,000;  130,000;    0,000
323,499;  155,000;  109,000;    0,000
323,518;    7,000;  -54,000;    0,000
323,536;  361,000;  340,000;    0,000
323,555;  146,000;   76,000;    0,000
323,573; -248,000; -175,000;    0,000
323,592;   61,000;  178,000;    0,000
323,610; -251,000; -245,000;    0,000
323,629;  234,000;  224,000;    0,000
323,647; -330,000; -346,000;    0,000
323,666;   43,000;   48,000;    0,000
323,684; -210,000; -149,000;    0,000
323,703;  230,000;  183,000;    0,000
323,721; -122,000; -100,000;    0,000
323,740;  614,000;  641,000;    0,000
323,758;  537,000;  658,000;    0,000
323,777;   96,000;  135,000;    0,000
323,795; -122,000; -100,000;    0,000
323,814;  196,000;  224,000;    0,000
323,832;  -92,000;   71,000;    0,000
323,851;  280,000;  169,000;    0,000
323,869;   61,000;  -26,000;    0,000
323,888;  174,000;  220,000;    0,000
323,906;  -49,000;  -24,000;    0,000
323,925;  269,000;  323,000;    0,000
323,943; -129,000; -173,000;    0,000
323,962;  342,000;  349,000;    0,000
323,980; -100,000;  -74,000;    0,000
323,999;  -73,000;  -68,000;    0,000
324,017;   20,000;  -70,000;    0,000
324,036;   25,000;   81,000;    0,000
324,054; -108,000; -119,000;    0,000
324,073;  557,000;  703,000;    0,000
324,091; -213,000; -122,000;    0,000
324,109;  -57,000;   -5,000;    0,000
324,128;  -18,000; -103,000;    0,000
324,146;  523,000;  542,000;    0,000
324,165; -100,000; -174,000;    0,000
324,183;    5,000;   17,000;    0,000
324,202;   59,000;   86,000;    0,000
324,220;  -98,000; -168,000;    0,000
324,239; -249,000; -313,000;    0,000
324,257;  205,000;   71,000;    0,000
324,275;  -14,000; -121,000;    0,000
324,294; -271,000; -321,000;    0,000
324,312;  -28,000;  142,000;    0,000
324,331;   31,000;   -5,000;    0,000
324,349;  -70,000;  -82,000;    0,000
324,368;   42,000;    7,000;    0,000
324,386; -182,000; -134,000;    0,000
324,404;  295,000;  307,000;    0,000
324,423;  -43,000;  -56,000;    0,000
324,441;  226,000;  333,000;    0,000
324,460; -116,000; -136,000;    0,000
324,478;  126,000;  103,000;    0,000
324,496;  497,000;  420,000;    0,000
324,515;   16,000;   26,000;    0,000
324,533;  -92,000;  -83,000;    0,000
324,552;  535,000;  546,000;    0,000
324,570; -156,000;  -98,000;    0,000
324,588;  712,000;  660,000;    0,000
324,607; -125,000;  -39,000;    0,000
324,625;   45,000;   28,000;    0,000
324,644;  185,000;  225,000;    0,000
324,662;  305,000;  251,000;    0,000
324,680; -105,000;  -98,000;    0,000
324,699;  -63,000;   12,000;    0,000
324,717;  -90,000; -118,000;    0,000
324,735;  -30,000;  -12,000;    0,000
324,754; -108,000; -154,000;    0,000
324,772;  369,000;  367,000;    0,000
324,791;  -86,000;  -30,000;    0,000
324,809;  130,000;   -9,000;    0,000
324,827; -152,000; -132,000;    0,000
324,846;  -85,000; -151,000;    0,000
324,864;  244,000;  252,000;    0,000
324,882; -200,000; -239,000;    0,000
324,901; -360,000; -382,000;    0,000
324,919;  287,000;  292,000;    0,000
324,937; -347,000; -395,000;    0,000
324,956;  117,000;  -16,000;    0,000
324,974;  -33,000; -103,000;    0,000
324,992;  -13,000;  -19,000;    0,000
325,011;  -77,000;  -22,000;    0,000
325,029;   94,000;   16,000;    0,000
325,047; -254,000; -132,000;    0,000
325,066;  -43,000;    2,000;    0,000
325,084; -287,000; -221,000;    0,000
325,102;  299,000;  241,000;    0,000
325,121;  104,000;  114,000;    0,000
325,139;  178,000;  128,000;    0,000
325,157; -302,000; -333,000;    0,000
325,176;  236,000;  343,000;    0,000
325,194; -241,000; -261,000;    0,000
325,212;  -79,000;  -41,000;    0,000
325,231;    6,000;   60,000;    0,000
325,249;   62,000;   85,000;    0,000
325,267;  -95,000; -140,000;    0,000
325,285;   -5,000;   83,000;    0,000
325,304;  228,000;  120,000;    0,000
325,322;  200,000;   82,000;    0,000
325,340;  170,000;   59,000;    0,000
325,359;  226,000;  348,000;    0,000
325,377;  -25,000;   48,000;    0,000
325,395;  269,000;  136,000;    0,000
325,413;   21,000;   55,000;    0,000
325,432;   34,000;  -87,000;    0,000
325,450;   58,000;   18,000;    0,000
325,468;  329,000;  246,000;    0,000
325,487;  116,000;  114,000;    0,000
325,505;  278,000;  267,000;    0,000
325,523; -150,000; -179,000;    0,000
325,541;   -8,000;  -41,000;    0,000
325,560; -174,000; -155,000;    0,000
325,578;  255,000;  191,000;    0,000
325,596;  194,000;  250,000;    0,000
325,614; -124,000; -200,000;    0,000
325,633;  337,000;  240,000;    0,000
325,651;  170,000;  202,000;    0,000
325,669;   83,000;  108,000;    0,000
325,687;   82,000;   -3,000;    0,000
325,706;  397,000;  402,000;    0,000
325,724;  118,000;   36,000;    0,000
325,742;   70,000;   79,000;    0,000
325,760;  -27,000;  -58,000;    0,000
325,779; -320,000; -469,000;    0,000
325,797; -132,000;  -29,000;    0,000
325,815; -436,000; -478,000;    0,000
325,833; -238,000; -297,000;    0,000
325,852;  -48,000;  -21,000;    0,000
325,870;  139,000;   21,000;    0,000
325,888; -279,000; -360,000;    0,000
325,906;  111,000;  143,000;    0,000
325,924; -124,000; -210,000;    0,000
325,943;  -41,000;   51,000;    0,000
325,961;  251,000;  185,000;    0,000
325,979; -190,000; -130,000;    0,000
325,997; -267,000; -210,000;    0,000
326,015;    9,000;  -63,000;    0,000
326,034; -307,000; -300,000;    0,000
326,052;  107,000;  106,000;    0,000
326,070;  -12,000;   65,000;    0,000
326,088;  208,000;  219,000;    0,000
326,106;  140,000;  121,000;    0,000
326,125;  -86,000;  -90,000;    0,000
326,143; -301,000; -331,000;    0,000
326,161;  295,000;  222,000;    0,000
326,179; -195,000; -150,000;    0,000
326,197;   17,000;   20,000;    0,000
326,216; -454,000; -419,000;    0,000
326,234;  101,000;   56,000;    0,000
326,252;   99,000;   75,000;    0,000
326,270;  240,000;  273,000;    0,000
326,288;   52,000;  -44,000;    0,000
326,306;  280,000;  156,000;    0,000
326,325;  -80,000;   52,000;    0,000
326,343;   81,000;  109,000;    0,000
326,361; -305,000; -219,000;    0,000
326,379;  201,000;  266,000;    0,000
326,397; -135,000;    2,000;    0,000
326,415;   97,000;   28,000;    0,000
326,433; -260,000; -261,000;    0,000
326,452;  201,000;  242,000;    0,000
326,470; -234,000; -261,000;    0,000
326,488;  198,000;   93,000;    0,000
326,506;   -4,000;   78,000;    0,000
326,524;  201,000;  231,000;    0,000
326,542;  356,000;  185,000;    0,000
326,560;  148,000;  135,000;    0,000
326,579;   20,000;   45,000;    0,000
326,597;  173,000;  153,000;    0,000
326,615;  298,000;  194,000;    0,000
326,633;  179,000;  192,000;    0,000
326,651;  185,000;   58,000;    0,000
326,669;   93,000;   60,000;    0,000
326,687; -166,000; -267,000;    0,000
326,705;  208,000;  259,000;    0,000
326,723;  115,000;   90,000;    0,000
326,742;  -38,000;  -81,000;    0,000
326,760;  112,000;   92,000;    0,000
326,778;  114,000;   88,000;    0,000
326,796;  -49,000; -124,000;    0,000
326,814;  -79,000;  -91,000;    0,000
326,832;   30,000;  152,000;    0,000
326,850; -101,000;  -66,000;    0,000
326,868; -432,000; -406,000;    0,000
326,886;  225,000;  182,000;    0,000
326,904;  -58,000;  -31,000;    0,000
326,922;   92,000;   84,000;    0,000
326,941; -243,000; -217,000;    0,000
326,959;  307,000;  279,000;    0,000
326,977;  -90,000;  -95,000;    0,000
326,995;   50,000;    0,000;    0,000
327,013; -131,000;  -38,000;    0,000
327,031; -180,000; -143,000;    0,000
327,049; -197,000; -312,000;    0,000
327,067;  -40,000; -144,000;    0,000
327,085;  278,000;  220,000;    0,000
327,103;  370,000;  323,000;    0,000
327,121; -327,000; -301,000;    0,000
327,139;    7,000;   26,000;    0,000
327,157;  -53,000;  -92,000;    0,000
327,175;  422,000;  464,000;    0,000
327,193;  142,000;  144,000;    0,000
327,211;  -50,000;   71,000;    0,000
327,229;   -1,000;  -43,000;    0,000
327,247;  -49,000;  -88,000;    0,000
327,266;  150,000;   80,000;    0,000
327,284;  104,000;  232,000;    0,000
327,302;   98,000;   -6,000;    0,000
327,320;  259,000;  364,000;    0,000
327,338;   39,000;   60,000;    0,000
327,356;  -14,000;  -34,000;    0,000
327,374; -143,000; -168,000;    0,000
327,392;   44,000;   67,000;    0,000
327,410; -283,000; -282,000;    0,000
327,428;  101,000;  160,000;    0,000
327,446; -142,000; -159,000;    0,000
327,464;  234,000;  256,000;    0,000
327,482;  109,000;   34,000;    0,000
327,500;   10,000;  -27,000;    0,000
327,518;  -38,000; -194,000;    0,000
327,536;  506,000;  372,000;    0,000
327,554;  178,000;  120,000;    0,000
327,572;   24,000;   11,000;    0,000
327,590; -186,000; -209,000;    0,000
327,608;  202,000;  217,000;    0,000
327,626;  250,000;  320,000;    0,000
327,644;   34,000;   30,000;    0,000
327,662; -157,000;  -68,000;    0,000
327,680;  328,000;  337,000;    0,000
327,698;   74,000;  103,000;    0,000
327,716;    6,000; -102,000;    0,000
327,734; -152,000; -183,000;    0,000
327,752;   99,000;   10,000;    0,000
327,770;  145,000;    1,000;    0,000
327,787;    4,000;   49,000;    0,000
327,805;  176,000;   77,000;    0,000
327,823;  223,000;  186,000;    0,000
327,841;  157,000;  117,000;    0,000
327,859;  100,000;  112,000;    0,000
327,877;  139,000;  107,000;    0,000
327,895;  323,000;  356,000;    0,000
327,913;   27,000;  155,000;    0,000
327,931;  424,000;  432,000;    0,000
327,949; -293,000; -270,000;    0,000
327,967;  373,000;  359,000;    0,000
327,985; -301,000; -334,000;    0,000
328,003;  299,000;  415,000;    0,000
328,021; -287,000; -352,000;    0,000
328,039;  103,000;  193,000;    0,000
328,057;    6,000;  -26,000;    0,000
328,075;  249,000;  239,000;    0,000
328,092;  -25,000;  -32,000;    0,000
328,110;  -22,000; -140,000;    0,000
328,128;  -49,000; -105,000;    0,000
328,146;  314,000;  353,000;    0,000
328,164;    4,000;   38,000;    0,000
328,182;  -21,000;  -28,000;    0,000
328,200;  -52,000;   26,000;    0,000
328,218; -139,000; -201,000;    0,000
328,236;  -50,000;   71,000;    0,000
328,254;  -77,000;  -35,000;    0,000
328,272;  291,000;  192,000;    0,000
328,289;   65,000;   29,000;    0,000
328,307;   64,000;   66,000;    0,000
328,325;  124,000;   -5,000;    0,000
328,343;  -61,000; -129,000;    0,000
328,361;  113,000;   96,000;    0,000
328,379; -156,000; -145,000;    0,000
328,397;  103,000;  163,000;    0,000
328,415; -145,000; -144,000;    0,000
328,432;  279,000;  257,000;    0,000
328,450;   70,000;  134,000;    0,000
328,468;  287,000;  361,000;    0,000
328,486;  -93,000; -178,000;    0,000
328,504;   31,000;  128,000;    0,000
328,522; -119,000; -101,000;    0,000
328,540;  302,000;  191,000;    0,000
328,558;   73,000;  -13,000;    0,000
328,575;   87,000;   79,000;    0,000
328,593;  265,000;  140,000;    0,000
328,611;   98,000;  143,000;    0,000
328,629; -202,000; -134,000;    0,000
328,647;   -4,000;   33,000;    0,000
328,665; -171,000; -180,000;    0,000
328,682;  208,000;  102,000;    0,000
328,700;  372,000;  468,000;    0,000
328,718;  140,000;  141,000;    0,000
328,736; -107,000;  -83,000;    0,000
328,754;  234,000;  116,000;    0,000
328,772;  -57,000;  -25,000;    0,000
328,789; -197,000; -152,000;    0,000
328,807; -219,000; -191,000;    0,000
328,825;   12,000;   78,000;    0,000
328,843;  234,000;   74,000;    0,000
328,861;   79,000;   59,000;    0,000
328,879; -105,000; -224,000;    0,000
328,896;  -50,000;  -84,000;    0,000
328,914;  141,000;   93,000;    0,000
328,932;  166,000;  107,000;    0,000
328,950; -147,000;  -22,000;    0,000
328,968;  173,000;   72,000;    0,000
328,985;  124,000;  156,000;    0,000
329,003;  140,000;  184,000;    0,000
329,021;  222,000;   82,000;    0,000
329,039;   70,000;   27,000;    0,000
329,057;   48,000;   88,000;    0,000
329,074;  101,000;  -70,000;    0,000
329,092; -357,000; -310,000;    0,000
329,110;  -94,000;  -77,000;    0,000
329,128;   38,000;  -14,000;    0,000
329,146;  117,000;   -6,000;    0,000
329,163; -304,000; -375,000;    0,000
329,181;  409,000;  389,000;    0,000
329,199; -388,000; -260,000;    0,000
329,217;  -56,000;  -63,000;    0,000
329,234;   -6,000;   19,000;    0,000
329,252; -179,000; -198,000;    0,000
329,270;    4,000;  -61,000;    0,000
329,288;  127,000;   88,000;    0,000
329,305;  213,000;  185,000;    0,000
329,323;  174,000;   81,000;    0,000
329,341;    8,000;   39,000;    0,000
329,359;  559,000;  549,000;    0,000
329,376;  -99,000;  -88,000;    0,000
329,394;  -30,000;   -4,000;    0,000
329,412;  228,000;    7,000;    0,000
329,430;   57,000;  141,000;    0,000
329,447; -213,000; -199,000;    0,000
329,465;  -44,000;  -18,000;    0,000
329,483;  130,000;   74,000;    0,000
329,501;  205,000;  193,000;    0,000
329,518; -208,000; -187,000;    0,000
329,536;  -83,000;  -94,000;    0,000
329,554;  -23,000;  -11,000;    0,000
329,571;  276,000;  285,000;    0,000
329,589; -174,000; -285,000;    0,000
329,607;   31,000;   84,000;    0,000
329,625; -164,000; -223,000;    0,000
329,642;  -62,000;   -4,000;    0,000
329,660; -377,000; -271,000;    0,000
329,678;  138,000;  135,000;    0,000
329,695; -161,000; -142,000;    0,000
329,713;  -43,000;  -38,000;    0,000
329,731;  -96,000; -110,000;    0,000
329,748;  -55,000;   -4,000;    0,000
329,766;    4,000;  -62,000;    0,000
329,784;  177,000;  207,000;    0,000
329,802;  292,000;  285,000;    0,000
329,819;   -5,000;   15,000;    0,000
329,837; -170,000; -260,000;    0,000
329,855;  -93,000;   -3,000;    0,000
329,872; -200,000; -268,000;    0,000
329,890;  205,000;  232,000;    0,000
329,908;  175,000;  310,000;    0,000
329,925;  148,000;  130,000;    0,000
329,943; -365,000; -361,000;    0,000
329,961;   35,000;   28,000;    0,000
329,978; -176,000; -172,000;    0,000
329,996;  293,000;  197,000;    0,000
330,014;  -13,000;  -85,000;    0,000
330,031;  183,000;  223,000;    0,000
330,049; -217,000; -212,000;    0,000
330,066;  209,000;  294,000;    0,000
330,084;  -22,000;  -37,000;    0,000
330,102;  205,000;  227,000;    0,000
330,119;  -27,000;    6,000;    0,000
330,137;  441,000;  436,000;    0,000
330,155;  458,000;  257,000;    0,000
330,172;  990,000;  483,000;    0,000
330,190; 2094,000; 1004,000;    0,000
330,208; 4128,000; 2039,000;    0,000
330,225; 5600,000; 2840,000;    0,000
330,243; 4944,000; 2524,000;    0,000
330,260; 3572,000; 1908,000;    0,000
330,278; 3636,000; 1878,000;    0,000
330,296; 3027,000; 1524,000;    0,000
330,313; 1875,000; 1136,000;    0,000
330,331;  945,000;  474,000;    0,000
330,349;  483,000;  188,000;    0,000
330,366;  459,000;  311,000;    0,000
330,384;  409,000;  334,000;    0,000
330,401;  -21,000;  -70,000;    0,000
330,419;   92,000;   73,000;    0,000
330,437;  -27,000;   -2,000;    0,000
330,454;  517,000;  465,000;    0,000
330,472;  114,000;   63,000;    0,000
330,489;  389,000;  325,000;    0,000
330,507;   59,000;  -23,000;    0,000
330,525;  340,000;  235,000;    0,000
330,542;  -80,000; -187,000;    0,000
330,560;  132,000;   63,000;    0,000
330,577;  220,000;  161,000;    0,000
330,595;  349,000;  474,000;    0,000
330,612;  -83,000;  -68,000;    0,000
330,630; -103,000;  -94,000;    0,000
330,648;  -49,000;  -76,000;    0,000
330,665;   83,000;   76,000;    0,000
330,683; -428,000; -355,000;    0,000
330,700;  132,000;   74,000;    0,000
330,718;  -58,000;  -83,000;    0,000
330,735;  179,000;  170,000;    0,000
330,753;    3,000;   14,000;    0,000
330,770;  -45,000; -126,000;    0,000
330,788;   31,000;  103,000;    0,000
330,806;  -80,000; -250,000;    0,000
330,823;  -25,000;  -19,000;    0,000
330,841;  189,000;  137,000;    0,000
330,858;    5,000;   49,000;    0,000
330,876;   75,000;   53,000;    0,000
330,893; -139,000; -141,000;    0,000
330,911;  633,000;  564,000;    0,000
330,928;   54,000;   15,000;    0,000
330,946;  260,000;  254,000;    0,000
330,963;  -49,000;  -79,000;    0,000
330,981;  210,000;  195,000;    0,000
330,998; -114,000;  -60,000;    0,000
331,016;  414,000;  399,000;    0,000
331,033; -159,000; -165,000;    0,000
331,051;  101,000; -114,000;    0,000
331,068;   62,000;  -86,000;    0,000
331,086;  240,000;  316,000;    0,000
331,103; -266,000; -296,000;    0,000
331,121;  424,000;  291,000;    0,000
331,138;  104,000;  -15,000;    0,000
331,156; -138,000; -145,000;    0,000
331,173; -185,000; -268,000;    0,000
331,191;   52,000;   98,000;    0,000
331,208; -225,000; -234,000;    0,000
331,226;  -83,000;   42,000;    0,000
331,243; -230,000; -178,000;    0,000
331,261;   27,000;    0,000;    0,000
331,278; -193,000; -179,000;    0,000
331,296;  203,000;  153,000;    0,000
331,313;   94,000;  109,000;    0,000
331,331;  -22,000;  -51,000;    0,000
331,348;   25,000;   96,000;    0,000
331,366;  455,000;  372,000;    0,000
331,383;   37,000;   39,000;    0,000
331,401;  454,000;  590,000;    0,000
331,418; -204,000; -317,000;    0,000
331,435;  276,000;  192,000;    0,000
331,453;    7,000;   58,000;    0,000
331,470;   -2,000;  -45,000;    0,000
331,488;  -76,000;  -61,000;    0,000
331,505;  409,000;  391,000;    0,000
331,523; -173,000; -204,000;    0,000
331,540;  -25,000;  -39,000;    0,000
331,558;  196,000;  144,000;    0,000
331,575;   83,000;   79,000;    0,000
331,592; -446,000; -418,000;    0,000
331,610;   29,000;   28,000;    0,000
331,627; -187,000;  -99,000;    0,000
331,645;  167,000;  216,000;    0,000
331,662; -271,000; -202,000;    0,000
331,680;  -26,000;   65,000;    0,000
331,697; -206,000; -136,000;    0,000
331,714;    2,000;   56,000;    0,000
331,732;  113,000;   18,000;    0,000
331,749;  238,000;  317,000;    0,000
331,767; -224,000; -339,000;    0,000
331,784;   40,000;   64,000;    0,000
331,801;  -24,000;  110,000;    0,000
331,819;  106,000;  151,000;    0,000
331,836;  -94,000; -227,000;    0,000
331,854;  169,000;   88,000;    0,000
331,871;   83,000;   26,000;    0,000
331,888;  137,000;  175,000;    0,000
331,906; -238,000; -240,000;    0,000
331,923;   16,000;  126,000;    0,000
331,941;    2,000;  -80,000;    0,000
331,958;  119,000;  113,000;    0,000
331,975;    2,000;   16,000;    0,000
331,993;  446,000;  502,000;    0,000
332,010; -199,000; -227,000;    0,000
332,027;   50,000;   48,000;    0,000
332,045;  -41,000;   31,000;    0,000
332,062; -256,000; -236,000;    0,000
332,080;   38,000;   69,000;    0,000
332,097;  -56,000;  -28,000;    0,000
332,114;   60,000;   36,000;    0,000
332,132;  -93,000;  -17,000;    0,000
332,149; -219,000; -252,000;    0,000
332,166;  150,000;  116,000;    0,000
332,184; -107,000; -120,000;    0,000
332,201;  157,000;  242,000;    0,000
332,218;  -11,000;   32,000;    0,000
332,236;  142,000;  160,000;    0,000
332,253; -426,000; -358,000;    0,000
332,270;   -4,000;  -62,000;    0,000
332,288;  -84,000; -163,000;    0,000
332,305;  108,000;   90,000;    0,000
332,322;  -84,000; -100,000;    0,000
332,340;   34,000;    7,000;    0,000
332,357;   69,000;   83,000;    0,000
332,374;  451,000;  424,000;    0,000
332,392; -227,000; -301,000;    0,000
332,409;  175,000;  122,000;    0,000
332,426;  -14,000;   52,000;    0,000
332,444;  -38,000;  -91,000;    0,000
332,461; -149,000; -108,000;    0,000
332,478; -120,000; -117,000;    0,000
332,496; -109,000; -131,000;    0,000
332,513;   98,000;  122,000;    0,000
332,530; -278,000; -339,000;    0,000
332,547;  -51,000;  -62,000;    0,000
332,565; -299,000; -240,000;    0,000
332,582;  423,000;  424,000;    0,000
332,599;   12,000;  -67,000;    0,000
332,617;  120,000;  234,000;    0,000
332,634;   16,000; -139,000;    0,000
332,651; -154,000; -196,000;    0,000
332,668; -155,000; -144,000;    0,000
332,686;  -27,000;  -18,000;    0,000
332,703;  223,000;  223,000;    0,000
332,720; -327,000; -286,000;    0,000
332,738; -174,000; -152,000;    0,000
332,755;  388,000;  318,000;    0,000
332,772;  384,000;  279,000;    0,000
332,789; -139,000; -179,000;    0,000
332,807;  142,000;  213,000;    0,000
332,824;  -52,000;   10,000;    0,000
332,841;  103,000;  155,000;    0,000
332,858;  237,000;  277,000;    0,000
332,876; -190,000; -197,000;    0,000
332,893;  -22,000;  -40,000;    0,000
332,910;  549,000;  645,000;    0,000
332,927;  -27,000;  -37,000;    0,000
332,945;  196,000;   39,000;    0,000
332,962; -242,000; -219,000;    0,000
332,979; -166,000; -178,000;    0,000
332,996;   82,000;   16,000;    0,000
333,013;  -28,000;  -28,000;    0,000
333,031;  -71,000; -123,000;    0,000
333,048;  322,000;  387,000;    0,000
333,065;  -14,000;    3,000;    0,000
333,082; -150,000; -126,000;    0,000
333,100;   -9,000;   36,000;    0,000
333,117; -148,000;  -69,000;    0,000
333,134;  148,000;  169,000;    0,000
333,151; -122,000; -116,000;    0,000
333,168;  404,000;  323,000;    0,000
333,186;  141,000;  190,000;    0,000
333,203;   43,000;   21,000;    0,000
333,220;  153,000;  201,000;    0,000
333,237;   28,000;   92,000;    0,000
333,254;   29,000;  -28,000;    0,000
333,272;  146,000;   99,000;    0,000
333,289; -361,000; -333,000;    0,000
333,306;  -48,000;  -64,000;    0,000
333,323; -583,000; -514,000;    0,000
333,340;  120,000;  180,000;    0,000
333,358; -220,000; -194,000;    0,000
333,375;   29,000;   -5,000;    0,000
333,392; -227,000; -330,000;    0,000
333,409;   32,000;  -87,000;    0,000
333,426;   -9,000;   38,000;    0,000
333,443;  433,000;  449,000;    0,000
333,461;  268,000;  192,000;    0,000
333,478; -226,000;  -81,000;    0,000
333,495; -187,000; -265,000;    0,000
333,512;  429,000;  329,000;    0,000
333,529;  -34,000; -131,000;    0,000
333,546;  243,000;  252,000;    0,000
333,564;  -58,000;   -4,000;    0,000
333,581;   74,000;   75,000;    0,000
333,598; -378,000; -275,000;    0,000
333,615; -134,000; -204,000;    0,000
333,632;  269,000;  190,000;    0,000
333,649;   52,000;  106,000;    0,000
333,666;  224,000;  258,000;    0,000
333,683;  250,000;  270,000;    0,000
333,701;   48,000; -122,000;    0,000
333,718;  228,000;  203,000;    0,000
333,735;   27,000;  -61,000;    0,000
333,752; -109,000;  -41,000;    0,000
333,769;  142,000; -125,000;    0,000
333,786;   43,000;   61,000;    0,000
333,803; -271,000; -354,000;    0,000
333,820;   83,000;  117,000;    0,000
333,838; -305,000; -298,000;    0,000
333,855; -118,000;  -61,000;    0,000
333,872;  -13,000;  101,000;    0,000
333,889;  462,000;  383,000;    0,000
333,906;  -21,000;   45,000;    0,000
333,923;   93,000;  171,000;    0,000
333,940;  204,000;  142,000;    0,000
333,957;  195,000;  194,000;    0,000
333,974;   62,000;  124,000;    0,000
333,991;  239,000;  138,000;    0,000
334,008;  284,000;  358,000;    0,000
334,026;  213,000;  219,000;    0,000
334,043; -315,000; -301,000;    0,000
334,060;  188,000;  262,000;    0,000
334,077;   71,000;   85,000;    0,000
334,094;   -9,000;   27,000;    0,000
334,111; -110,000;  -52,000;    0,000
334,128;  -12,000;   23,000;    0,000
334,145;  605,000;  583,000;    0,000
334,162;  195,000;  106,000;    0,000
334,179; -175,000; -250,000;    0,000
334,196;   70,000;    6,000;    0,000
334,213;  -65,000; -104,000;    0,000
334,230;  284,000;  315,000;    0,000
334,247;  147,000;   91,000;    0,000
334,264;   70,000;  143,000;    0,000
334,281;   26,000;   17,000;    0,000
334,298;  177,000;  142,000;    0,000
334,316;   77,000;  -50,000;    0,000
334,333;  -77,000; -105,000;    0,000
334,350;  -24,000;  -36,000;    0,000
334,367;  -64,000; -106,000;    0,000
334,384; -152,000;  -71,000;    0,000
334,401;  -48,000;  -19,000;    0,000
334,418; -375,000; -440,000;    0,000
334,435;  203,000;  222,000;    0,000
334,452;   33,000;   53,000;    0,000
334,469;  245,000;  280,000;    0,000
334,486;  -35,000;  -53,000;    0,000
334,503;  180,000;  262,000;    0,000
334,520;  -59,000; -193,000;    0,000
334,537;  242,000;  460,000;    0,000
334,554;  -34,000;  -46,000;    0,000
334,571;  212,000;  141,000;    0,000
334,588; -229,000; -213,000;    0,000
334,605;  -50,000;  -73,000;    0,000
334,622;   38,000;   -8,000;    0,000
334,639;  258,000;  277,000;    0,000
334,656; -343,000; -343,000;    0,000
334,673;  437,000;  357,000;    0,000
334,690;  -72,000;  -58,000;    0,000
334,707; -118,000;  -14,000;    0,000
334,724;  -46,000;  -77,000;    0,000
334,741; -226,000; -158,000;    0,000
334,758; -172,000; -191,000;    0,000
334,775;   11,000;   67,000;    0,000
334,792; -170,000; -113,000;    0,000
334,809;  292,000;  323,000;    0,000
334,826;    6,000;  -57,000;    0,000
334,842;  175,000;  146,000;    0,000
334,859;  169,000;  148,000;    0,000
334,876;  398,000;  267,000;    0,000
334,893;  -37,000;  -90,000;    0,000
334,910;    0,000;   35,000;    0,000
334,927;   41,000;   17,000;    0,000
334,944;  146,000;  114,000;    0,000
334,961; -130,000; -138,000;    0,000
334,978;  291,000;  295,000;    0,000
334,995;  -95,000; -110,000;    0,000
335,012;   74,000;  -70,000;    0,000
335,029;   20,000;    1,000;    0,000
335,046; -124,000; -261,000;    0,000
335,063;  385,000;  272,000;    0,000
335,080;  216,000;  287,000;    0,000
335,097; -300,000; -391,000;    0,000
335,113;   29,000;   82,000;    0,000
335,130; -159,000; -166,000;    0,000
335,147;  474,000;  584,000;    0,000
335,164; -217,000; -184,000;    0,000
335,181;   11,000;   -2,000;    0,000
335,198; -422,000; -413,000;    0,000
335,215;  102,000;   33,000;    0,000
335,232;  222,000;  160,000;    0,000
335,249;  187,000;  160,000;    0,000
335,266;    7,000;  -11,000;    0,000
335,283;  -50,000;  -23,000;    0,000
335,299;  224,000;  245,000;    0,000
335,316;  -26,000;   30,000;    0,000
335,333; -243,000; -286,000;    0,000
335,350;  385,000;  294,000;    0,000
335,367;  100,000;  241,000;    0,000
335,384;  -61,000;  -30,000;    0,000
335,401; -500,000; -323,000;    0,000
335,418;  154,000;  131,000;    0,000
335,434; -240,000; -229,000;    0,000
335,451;  183,000;  282,000;    0,000
335,468;   59,000;  -39,000;    0,000
335,485;   99,000;  136,000;    0,000
335,502; -154,000; -214,000;    0,000
335,519;  -71,000;  -79,000;    0,000
335,536;  157,000;  183,000;    0,000
335,552;  253,000;  318,000;    0,000
335,569;  -81,000;  -26,000;    0,000
335,586;  -18,000;    7,000;    0,000
335,603;  -74,000;   19,000;    0,000
335,620;  -78,000; -105,000;    0,000
335,637;  234,000;  219,000;    0,000
335,654;   -5,000; -189,000;    0,000
335,670;  -40,000; -120,000;    0,000
335,687;  -78,000;  -77,000;    0,000
335,704; -148,000;  -84,000;    0,000
335,721;   94,000;   27,000;    0,000
335,738;   -7,000;  -94,000;    0,000
335,755;  -59,000; -142,000;    0,000
335,771; -230,000; -198,000;    0,000
335,788;  -39,000; -138,000;    0,000
335,805;  -68,000; -212,000;    0,000
335,822;   72,000;  131,000;    0,000
335,839; -454,000; -423,000;    0,000
335,855; -208,000; -213,000;    0,000
335,872; -286,000; -375,000;    0,000
335,889;  201,000;   72,000;    0,000
335,906;   25,000;    6,000;    0,000
335,923;  -52,000;  -26,000;    0,000
335,939; -295,000; -300,000;    0,000
335,956;  180,000;  304,000;    0,000
335,973;  132,000;  -20,000;    0,000
335,990; 1454,000; 1507,000;    0,000
336,007; -177,000; -205,000;    0,000
336,023;  310,000;  320,000;    0,000
336,040; -191,000; -100,000;    0,000
336,057;  147,000;  152,000;    0,000
336,074; -112,000; -180,000;    0,000
336,090;  257,000;  249,000;    0,000
336,107; -172,000; -182,000;    0,000
336,124; -182,000; -228,000;    0,000
336,141;  -29,000;  -66,000;    0,000
336,158;  203,000;  130,000;    0,000
336,174;  -22,000;  -61,000;    0,000
336,191;   29,000;   35,000;    0,000
336,208; -208,000; -342,000;    0,000
336,225;  391,000;  285,000;    0,000
336,241;   53,000; -147,000;    0,000
336,258;  576,000;  577,000;    0,000
336,275; -466,000; -350,000;    0,000
336,292;   21,000;  -61,000;    0,000
336,308; -361,000; -427,000;    0,000
336,325;  102,000;  168,000;    0,000
336,342;  -49,000;  -65,000;    0,000
336,358;  260,000;  209,000;    0,000
336,375;  -44,000;   70,000;    0,000
336,392; -167,000; -178,000;    0,000
336,409; -328,000; -304,000;    0,000
336,425;  383,000;  327,000;    0,000
336,442;   17,000;  -87,000;    0,000
336,459;  -49,000; -105,000;    0,000
336,476;  152,000;  131,000;    0,000
336,492;  129,000;  210,000;    0,000
336,509;  -11,000;    4,000;    0,000
336,526;  104,000;  -14,000;    0,000
336,542; -153,000; -138,000;    0,000
336,559;  189,000;  183,000;    0,000
336,576; -292,000; -283,000;    0,000
336,592;  258,000;  194,000;    0,000
336,609;   23,000;   13,000;    0,000
336,626;  235,000;  241,000;    0,000
336,643;   -2,000;   84,000;    0,000
336,659;   43,000;   38,000;    0,000
336,676; -108,000;   15,000;    0,000
336,693;  427,000;  400,000;    0,000
336,709;  -47,000; -109,000;    0,000
336,726;   60,000;  144,000;    0,000
336,743;   -3,000; -193,000;    0,000
336,759;  -87,000;  -11,000;    0,000
336,776; -349,000; -146,000;    0,000
336,793;  -52,000;  -81,000;    0,000
336,809; -249,000; -302,000;    0,000
336,826;  -40,000;   49,000;    0,000
336,843;  -80,000;   87,000;    0,000
336,859;   87,000;   55,000;    0,000
336,876; -183,000; -300,000;    0,000
336,893; -177,000; -275,000;    0,000
336,909; -159,000;  -99,000;    0,000
336,926;  399,000;  389,000;    0,000
336,942;    7,000;   70,000;    0,000
336,959;  334,000;  350,000;    0,000
336,976;  -11,000;  -51,000;    0,000
336,992;  -96,000;  -52,000;    0,000
337,009;  -37,000;  -45,000;    0,000
337,026;   91,000;  275,000;    0,000
337,042; -156,000;  -91,000;    0,000
337,059;   50,000;  -86,000;    0,000
337,076;   49,000;  108,000;    0,000
337,092;  -73,000; -157,000;    0,000
337,109;  -63,000;  -54,000;    0,000
337,125;  215,000;  214,000;    0,000
337,142; -176,000; -217,000;    0,000
337,159;  162,000;  220,000;    0,000
337,175;  157,000;  148,000;    0,000
337,192;  192,000;  133,000;    0,000
337,208;  151,000;  199,000;    0,000
337,225;  279,000;  411,000;    0,000
337,242; -238,000; -178,000;    0,000
337,258;   60,000;   34,000;    0,000
337,275;  -31,000;  -95,000;    0,000
337,291; -107,000; -165,000;    0,000
337,308; -221,000; -204,000;    0,000
337,325;  228,000;  283,000;    0,000
337,341;   21,000;  -45,000;    0,000
337,358;   36,000;  -16,000;    0,000
337,374;  198,000;  136,000;    0,000
337,391;  313,000;  258,000;    0,000
337,407;   -9,000;  -64,000;    0,000
337,424; -190,000; -207,000;    0,000
337,441;  173,000;  120,000;    0,000
337,457;   60,000;   18,000;    0,000
337,474;   -4,000;  -75,000;    0,000
337,490;  -87,000;  -60,000;    0,000
337,507; -388,000; -381,000;    0,000
337,523;  308,000;  312,000;    0,000
337,540; -263,000; -273,000;    0,000
337,556;  147,000;  170,000;    0,000
337,573;  -10,000; -130,000;    0,000
337,590; -263,000; -107,000;    0,000
337,606; -107,000; -136,000;    0,000
337,623;   64,000;   13,000;    0,000
337,639; -159,000; -195,000;    0,000
337,656; -176,000; -157,000;    0,000
337,672;   -4,000;  -89,000;    0,000
337,689;  154,000;  214,000;    0,000
337,705; -269,000; -189,000;    0,000
337,722;  344,000;  306,000;    0,000
337,738;  145,000;  132,000;    0,000
337,755; -149,000;  -83,000;    0,000
337,771;  -12,000;  -63,000;    0,000
337,788;   47,000;   95,000;    0,000
337,804;  131,000;   23,000;    0,000
337,821;  156,000;  152,000;    0,000
337,837; -183,000; -121,000;    0,000
337,854;  103,000;  166,000;    0,000
337,870; -325,000; -316,000;    0,000
337,887;   99,000;   89,000;    0,000
337,903; -193,000; -170,000;    0,000
337,920;  196,000;  221,000;    0,000
337,936; -351,000; -285,000;    0,000
337,953;  155,000;  262,000;    0,000
337,969;   73,000;  143,000;    0,000
337,986;  173,000;  209,000;    0,000
338,002; -237,000; -273,000;    0,000
338,019;   70,000;  153,000;    0,000
338,035; -117,000;  -59,000;    0,000
338,052; -120,000; -273,000;    0,000
338,068;  512,000;  555,000;    0,000
338,085;   99,000;  169,000;    0,000
338,101; -376,000; -369,000;    0,000
338,118;  -49,000;    2,000;    0,000
338,134;  291,000;  238,000;    0,000
338,151;  157,000;   37,000;    0,000
338,167; -373,000; -287,000;    0,000
338,183;  155,000;  345,000;    0,000
338,200;  -15,000;   59,000;    0,000
338,216;   75,000;  -19,000;    0,000
338,233; -168,000; -107,000;    0,000
338,249;  201,000;  230,000;    0,000
338,266;   31,000;  -27,000;    0,000
338,282;  224,000;  167,000;    0,000
338,298;  -43,000;  -75,000;    0,000
338,315;  175,000;   78,000;    0,000
338,331; -478,000; -423,000;    0,000
338,348;   71,000;   34,000;    0,000
338,364; -389,000; -336,000;    0,000
338,381;  -72,000;  -38,000;    0,000
338,397; -431,000; -477,000;    0,000
338,413;  132,000;   48,000;    0,000
338,430; -203,000; -151,000;    0,000
338,446;   23,000;   24,000;    0,000
338,463; -461,000; -405,000;    0,000
338,479;  128,000;   93,000;    0,000
338,495; -121,000; -168,000;    0,000
338,512;   34,000;  110,000;    0,000
338,528; -237,000; -162,000;    0,000
338,545;  111,000;  113,000;    0,000
338,561;   31,000;   85,000;    0,000
338,577;   43,000;   20,000;    0,000
338,594; -184,000; -173,000;    0,000
338,610;  119,000;  149,000;    0,000
338,627; -325,000; -337,000;    0,000
338,643;    3,000;    6,000;    0,000
338,659;  271,000;  310,000;    0,000
338,676;   -5,000;   19,000;    0,000
338,692;  197,000;  105,000;    0,000
338,708; -199,000; -129,000;    0,000
338,725; -537,000; -525,000;    0,000
338,741;  241,000;  315,000;    0,000
338,758;   69,000;   20,000;    0,000
338,774;  -60,000; -122,000;    0,000
338,790; -158,000; -186,000;    0,000
338,807;  257,000;  243,000;    0,000
338,823; -248,000; -242,000;    0,000
338,839;   26,000;   48,000;    0,000
338,856; -241,000; -215,000;    0,000
338,872;  574,000;  397,000;    0,000
338,888; -288,000; -320,000;    0,000
338,905;  -25,000;   63,000;    0,000
338,921; -118,000; -138,000;    0,000
338,937;  -89,000; -100,000;    0,000
338,954;  296,000;  269,000;    0,000
338,970;   75,000;  204,000;    0,000
338,986; -261,000; -270,000;    0,000
339,003;  144,000;  165,000;    0,000
339,019; -261,000; -212,000;    0,000
339,035;  135,000;  140,000;    0,000
339,052;  -67,000;  -86,000;    0,000
339,068; -119,000; -165,000;    0,000
339,084;  -85,000;  -61,000;    0,000
339,101;  235,000;  366,000;    0,000
339,117; -261,000; -264,000;    0,000
339,133;  296,000;  217,000;    0,000
339,149; -480,000; -426,000;    0,000
339,166;  111,000;   -7,000;    0,000
339,182; -377,000; -327,000;    0,000
339,198;  163,000;   96,000;    0,000
339,215; -187,000; -151,000;    0,000
339,231;  381,000;  293,000;    0,000
339,247; -263,000; -219,000;    0,000
339,263;   67,000;  186,000;    0,000
339,280;  363,000;  404,000;    0,000
339,296; -136,000;  -30,000;    0,000
339,312; -180,000;  -55,000;    0,000
339,329; -102,000;  -84,000;    0,000
339,345;  111,000;   19,000;    0,000
339,361;  -81,000;  -72,000;    0,000
339,377;  -89,000;  -87,000;    0,000
339,394;  283,000;  184,000;    0,000
339,410;  -86,000;  -52,000;    0,000
339,426;  -59,000;   41,000;    0,000
339,442; -249,000; -234,000;    0,000
339,459;  113,000;  138,000;    0,000
339,475; -163,000; -212,000;    0,000
339,491;   84,000;    2,000;    0,000
339,507;   16,000;   17,000;    0,000
339,524;  111,000;  -45,000;    0,000
339,540; -224,000; -249,000;    0,000
339,556; -148,000; -136,000;    0,000
339,572; -107,000; -129,000;    0,000
339,589;  -19,000;   44,000;    0,000
339,605;  253,000;  268,000;    0,000
339,621;  197,000;  263,000;    0,000
339,637;  -79,000;  -54,000;    0,000
339,654;   62,000;  187,000;    0,000
339,670;  200,000;  274,000;    0,000
339,686;  -50,000;  -38,000;    0,000
339,702; -400,000; -420,000;    0,000
339,718;  280,000;  169,000;    0,000
339,735;   58,000;   24,000;    0,000
339,751;  155,000;  183,000;    0,000
339,767; -210,000; -231,000;    0,000
339,783;  109,000;  -52,000;    0,000
339,799; -109,000; -209,000;    0,000
339,816;  -36,000;   36,000;    0,000
339,832;   67,000;  118,000;    0,000
339,848;    0,000;  -50,000;    0,000
339,864;   42,000;   34,000;    0,000
339,880;    9,000;   25,000;    0,000
339,896; -105,000; -120,000;    0,000
339,913; -153,000; -203,000;    0,000
339,929; -163,000; -157,000;    0,000
339,945;  338,000;  299,000;    0,000
339,961;  362,000;  381,000;    0,000
339,977;  -33,000;   96,000;    0,000
339,993; -185,000; -133,000;    0,000
340,010;  188,000;  189,000;    0,000
340,026; -350,000; -334,000;    0,000
340,042;   44,000;  138,000;    0,000
340,058; -171,000; -292,000;    0,000
340,074;   47,000;   89,000;    0,000
340,090; -277,000; -189,000;    0,000
340,107;   48,000;   77,000;    0,000
340,123;   69,000;   67,000;    0,000
340,139;  104,000;  154,000;    0,000
340,155; -373,000; -321,000;    0,000
340,171;  197,000;  129,000;    0,000
340,187;   45,000;  -45,000;    0,000
340,203;  392,000;  361,000;    0,000
340,220; -447,000; -377,000;    0,000
340,236;  273,000;  353,000;    0,000
340,252; -132,000;  -33,000;    0,000
340,268;  206,000;  125,000;    0,000
340,284;  -53,000;   37,000;    0,000
340,300;  346,000;  405,000;    0,000
340,316;  -18,000;   -9,000;    0,000
340,332;  185,000;  143,000;    0,000
340,349;  -42,000;  -41,000;    0,000
340,365;  785,000;  812,000;    0,000
340,381;   54,000;   43,000;    0,000
340,397; -148,000; -135,000;    0,000
340,413; -166,000; -118,000;    0,000
340,429;  -34,000;   17,000;    0,000
340,445;  100,000;   56,000;    0,000
340,461;  398,000;  347,000;    0,000
340,477;  -63,000;   13,000;    0,000
340,493; -224,000;  -59,000;    0,000
340,509; -148,000; -199,000;    0,000
340,526;  215,000;  222,000;    0,000
340,542;  -94,000;  -88,000;    0,000
340,558;  200,000;  150,000;    0,000
340,574; -245,000;  -43,000;    0,000
340,590;  127,000;  146,000;    0,000
340,606; -265,000; -199,000;    0,000
340,622;   60,000;   46,000;    0,000
340,638; -183,000;  -17,000;    0,000
340,654;  141,000;  166,000;    0,000
340,670; -313,000; -255,000;    0,000
340,686; -159,000; -198,000;    0,000
340,702; -145,000;  -39,000;    0,000
340,718;   -8,000;   -5,000;    0,000
340,734;  136,000;  107,000;    0,000
340,750;    5,000;  -22,000;    0,000
340,766; -220,000; -193,000;    0,000
340,782;  -81,000;  -46,000;    0,000
340,798; -121,000;  -26,000;    0,000
340,815;  291,000;  295,000;    0,000
340,831;    8,000;   35,000;    0,000
340,847;  115,000;   99,000;    0,000
340,863; -111,000;  -91,000;    0,000
340,879;   29,000;   79,000;    0,000
340,895;   45,000;  -34,000;    0,000
340,911;  163,000;  151,000;    0,000
340,927;  195,000;  142,000;    0,000
340,943; -154,000;  -72,000;    0,000
340,959; -276,000; -294,000;    0,000
340,975;  160,000;  107,000;    0,000
340,991;  -47,000;  -44,000;    0,000
341,007;   65,000;  107,000;    0,000
341,023;  -24,000;  -90,000;    0,000
341,039; -233,000; -107,000;    0,000
341,055; -379,000; -382,000;    0,000
341,071;    4,000;   38,000;    0,000
341,087;  -14,000; -120,000;    0,000
341,103;  293,000;  203,000;    0,000
341,119;  135,000;    7,000;    0,000
341,135;   76,000;  117,000;    0,000
341,151;  -23,000;   77,000;    0,000
341,167;  348,000;  316,000;    0,000
341,183;    0,000;  -72,000;    0,000
341,199;   51,000;  -33,000;    0,000
341,215;  -47,000;   17,000;    0,000
341,230;  370,000;  324,000;    0,000
341,246;  -99,000; -222,000;    0,000
341,262;  661,000;  714,000;    0,000
341,278;  -91,000; -106,000;    0,000
341,294;  136,000;  188,000;    0,000
341,310;   -4,000;   62,000;    0,000
341,326;  164,000;  119,000;    0,000
341,342;  188,000;  213,000;    0,000
341,358;  186,000;   71,000;    0,000
341,374; -437,000; -426,000;    0,000
341,390;  169,000;  287,000;    0,000
341,406;   19,000;    2,000;    0,000
341,422;  119,000;  198,000;    0,000
341,438; -242,000; -322,000;    0,000
341,454;  299,000;  319,000;    0,000
341,470;  128,000;   96,000;    0,000
341,486;   -3,000;  -13,000;    0,000
341,502; -289,000; -367,000;    0,000
341,517;  272,000;  343,000;    0,000
341,533;   27,000;  -10,000;    0,000
341,549;  245,000;  186,000;    0,000
341,565;   14,000;  -20,000;    0,000
341,581;  301,000;  186,000;    0,000
341,597;  161,000;  122,000;    0,000
341,613;  -37,000;  -93,000;    0,000
341,629; -272,000; -325,000;    0,000
341,645;   -2,000;   12,000;    0,000
341,661; -134,000;   17,000;    0,000
341,676; -162,000; -137,000;    0,000
341,692; -317,000; -208,000;    0,000
341,708;  277,000;  315,000;    0,000
341,724;  104,000;  126,000;    0,000
341,740; -118,000; -102,000;    0,000
341,756; -158,000;  -90,000;    0,000
341,772;  431,000;  326,000;    0,000
341,788;  216,000;  234,000;    0,000
341,804;  155,000;  147,000;    0,000
341,819;  -52,000;  -93,000;    0,000
341,835;   76,000;  195,000;    0,000
341,851;  -61,000;  -31,000;    0,000
341,867;   83,000;  129,000;    0,000
341,883; -219,000; -238,000;    0,000
341,899;  317,000;  339,000;    0,000
341,915;  -59,000; -128,000;    0,000
341,930;  193,000;  234,000;    0,000
341,946;  315,000;  381,000;    0,000
341,962;   90,000;  189,000;    0,000
341,978; -234,000; -212,000;    0,000
341,994;  264,000;  192,000;    0,000
342,010;  -94,000;  -79,000;    0,000
342,025;   21,000; -100,000;    0,000
342,041;  -74,000;   41,000;    0,000
342,057;   60,000;   82,000;    0,000
342,073; -167,000; -282,000;    0,000
342,089;  -54,000;   24,000;    0,000
342,105;   76,000;   22,000;    0,000
342,120;  144,000;  210,000;    0,000
342,136;   37,000;   81,000;    0,000
342,152;   10,000;  -57,000;    0,000
342,168; -236,000;  -92,000;    0,000
342,184;  -93,000; -117,000;    0,000
342,200;   99,000;  133,000;    0,000
342,215;  156,000;  146,000;    0,000
342,231;   86,000;  242,000;    0,000
342,247; -171,000; -242,000;    0,000
342,263;  -39,000;   62,000;    0,000
342,279;   91,000;   98,000;    0,000
342,294; -507,000; -427,000;    0,000
342,310;  136,000;  135,000;    0,000
342,326;  -68,000; -141,000;    0,000
342,342; -184,000; -147,000;    0,000
342,357; -197,000; -245,000;    0,000
342,373;  -36,000;  118,000;    0,000
342,389; -323,000; -440,000;    0,000
342,405;   57,000;  -21,000;    0,000
342,421;  -89,000;  -57,000;    0,000
342,436;  -65,000;  -75,000;    0,000
342,452;  247,000;  265,000;    0,000
342,468; -106,000; -154,000;    0,000
342,484; -280,000; -244,000;    0,000
342,499; -127,000; -101,000;    0,000
342,515; -229,000; -177,000;    0,000
342,531;  261,000;  250,000;    0,000
342,547; -326,000; -255,000;    0,000
342,562;  247,000;  168,000;    0,000
342,578; -186,000; -246,000;    0,000
342,594;   -7,000;  -89,000;    0,000
342,610; -262,000; -231,000;    0,000
342,625;  218,000;  250,000;    0,000
342,641; -261,000; -198,000;    0,000
342,657;   62,000;  191,000;    0,000
342,673;  280,000;  240,000;    0,000
342,688; -214,000; -132,000;    0,000
342,704;   16,000;  123,000;    0,000
342,720;  179,000;  141,000;    0,000
342,735;  -74,000;  -62,000;    0,000
342,751;  173,000;  280,000;    0,000
342,767;  240,000;  224,000;    0,000
342,783;  281,000;  259,000;    0,000
342,798; -331,000; -327,000;    0,000
342,814;   -2,000;  -63,000;    0,000
342,830;  -60,000;  -30,000;    0,000
342,845;  101,000;  170,000;    0,000
342,861; -206,000;  -52,000;    0,000
342,877;   30,000;   84,000;    0,000
342,892;  112,000;   21,000;    0,000
342,908;   75,000;   -1,000;    0,000
342,924;  136,000;  245,000;    0,000
342,940; -100,000;  -70,000;    0,000
342,955; -194,000; -288,000;    0,000
342,971; -113,000;   50,000;    0,000
342,987;  121,000;  138,000;    0,000
343,002;  331,000;  274,000;    0,000
343,018;  -59,000;   79,000;    0,000
343,034;   -2,000;   -8,000;    0,000
343,049;  -27,000;   23,000;    0,000
343,065;   88,000;   87,000;    0,000
343,081;    3,000;    7,000;    0,000
343,096;  -14,000;  -61,000;    0,000
343,112; -208,000; -106,000;    0,000
343,128;   88,000;  115,000;    0,000
343,143; -293,000; -232,000;    0,000
343,159; -163,000; -165,000;    0,000
343,174;  -26,000;  -70,000;    0,000
343,190;  -17,000;  -89,000;    0,000
343,206; -221,000; -182,000;    0,000
343,221;  157,000;  252,000;    0,000
343,237; -274,000; -262,000;    0,000
343,253; -162,000; -243,000;    0,000
343,268;  137,000;   64,000;    0,000
343,284;   19,000;   87,000;    0,000
343,300; -202,000; -324,000;    0,000
343,315;  -28,000;  -21,000;    0,000
343,331; -278,000; -351,000;    0,000
343,346;  446,000;  424,000;    0,000
343,362; -163,000; -136,000;    0,000
343,378;  368,000;  356,000;    0,000
343,393; -267,000; -320,000;    0,000
343,409; -118,000; -100,000;    0,000
343,424; -250,000; -342,000;    0,000
343,440; -316,000; -296,000;    0,000
343,456; -277,000; -230,000;    0,000
343,471;  -20,000;  -12,000;    0,000
343,487; -182,000;  -44,000;    0,000
343,502; -170,000;  -97,000;    0,000
343,518;   21,000;   58,000;    0,000
343,534;  187,000;  117,000;    0,000
343,549; -315,000; -266,000;    0,000
343,565;  112,000;  248,000;    0,000
343,580; -366,000; -394,000;    0,000
343,596;  150,000;  205,000;    0,000
343,611;  -93,000; -119,000;    0,000
343,627;   30,000;  -13,000;    0,000
343,643; -197,000; -266,000;    0,000
343,658;  166,000;  153,000;    0,000
343,674;  134,000;  177,000;    0,000
343,689;   91,000;   46,000;    0,000
343,705;   82,000;   48,000;    0,000
343,720; -183,000; -139,000;    0,000
343,736; -140,000; -207,000;    0,000
343,751;  -44,000;  -66,000;    0,000
343,767;  -35,000;    7,000;    0,000
343,783;   74,000;  114,000;    0,000
343,798;   -6,000;    7,000;    0,000
343,814;  -43,000;  -16,000;    0,000
343,829; -195,000; -143,000;    0,000
343,845;   90,000;  123,000;    0,000
343,860; -226,000;  -65,000;    0,000
343,876;  154,000;  171,000;    0,000
343,891;  -64,000; -158,000;    0,000
343,907;  122,000;  116,000;    0,000
343,922; -306,000; -256,000;    0,000
343,938;   84,000;   69,000;    0,000
343,953;  -84,000; -136,000;    0,000
343,969;  255,000;   75,000;    0,000
343,984; -462,000; -428,000;    0,000
344,000;  166,000;  188,000;    0,000
344,015; -309,000; -267,000;    0,000
344,031;  -77,000;  -74,000;    0,000
344,046;  -61,000;  -62,000;    0,000
344,062;  368,000;  260,000;    0,000
344,077;  -96,000; -178,000;    0,000
344,093;  -95,000;   20,000;    0,000
344,108; -289,000; -287,000;    0,000
344,124; -135,000;  -93,000;    0,000
344,139;  -55,000;  -28,000;    0,000
344,155; -185,000;  -13,000;    0,000
344,170; -260,000; -242,000;    0,000
344,186;  103,000;  180,000;    0,000
344,201;  -44,000;   -2,000;    0,000
344,217; -172,000;  -74,000;    0,000
344,232;  -79,000; -122,000;    0,000
344,248;  -25,000; -125,000;    0,000
344,263;  287,000;  140,000;    0,000
344,279;  111,000;   81,000;    0,000
344,294; -199,000; -247,000;    0,000
344,309;   66,000;  -55,000;    0,000
344,325; -191,000; -150,000;    0,000
344,340;  -31,000;  -46,000;    0,000
344,356; -133,000; -147,000;    0,000
344,371;  218,000;  236,000;    0,000
344,387; -298,000; -317,000;    0,000
344,402;  128,000;  229,000;    0,000
344,418;   80,000;  181,000;    0,000
344,433;  101,000;  112,000;    0,000
344,448;   36,000;   52,000;    0,000
344,464;  426,000;  415,000;    0,000
344,479;  111,000;  145,000;    0,000
344,495;  195,000;  186,000;    0,000
344,510;   90,000;  -58,000;    0,000
344,526;  -11,000;   42,000;    0,000
344,541;  348,000;  374,000;    0,000
344,556;  179,000;  230,000;    0,000
344,572;  -23,000; -117,000;    0,000
344,587;  136,000;  179,000;    0,000
344,603;  -28,000;   79,000;    0,000
344,618;   73,000;  121,000;    0,000
344,633;  317,000;  265,000;    0,000
344,649;   54,000;   43,000;    0,000
344,664;  109,000; -108,000;    0,000
344,680;   91,000;  115,000;    0,000
344,695;  -38,000;  -69,000;    0,000
344,710;   40,000;    0,000;    0,000
344,726; -116,000;  -80,000;    0,000
344,741;   52,000;   60,000;    0,000
344,756;  -83,000;  -36,000;    0,000
344,772;   20,000;   59,000;    0,000
344,787;  347,000;  386,000;    0,000
344,803; -223,000;  -78,000;    0,000
344,818;  -71,000; -100,000;    0,000
344,833; -104,000;  -76,000;    0,000
344,849; -249,000; -258,000;    0,000
344,864;    5,000;   19,000;    0,000
344,879;  -32,000;    9,000;    0,000
344,895;  162,000;  214,000;    0,000
344,910;  111,000;    8,000;    0,000
344,925; -157,000; -153,000;    0,000
344,941; -400,000; -216,000;    0,000
344,956;   67,000;   38,000;    0,000
344,971; -170,000;  -95,000;    0,000
344,987;  149,000;  292,000;    0,000
345,002;    3,000;   42,000;    0,000
345,017; -231,000; -374,000;    0,000
345,033;  -69,000; -105,000;    0,000
345,048;   98,000;   58,000;    0,000
345,063;  -44,000;  -52,000;    0,000
345,079;  285,000;  323,000;    0,000
345,094;  -90,000; -203,000;    0,000
345,109;  315,000;  421,000;    0,000
345,125;  112,000;    3,000;    0,000
345,140;  -41,000;   44,000;    0,000
345,155; -142,000; -192,000;    0,000
345,171;   48,000;   32,000;    0,000
345,186; -271,000; -231,000;    0,000
345,201; -213,000; -103,000;    0,000
345,217;  123,000;  132,000;    0,000
345,232;  146,000;   74,000;    0,000
345,247;   21,000;   -8,000;    0,000
345,262;  248,000;  258,000;    0,000
345,278; -315,000; -261,000;    0,000
345,293;  411,000;  416,000;    0,000
345,308; -290,000; -179,000;    0,000
345,324;  298,000;  326,000;    0,000
345,339;   11,000;    1,000;    0,000
345,354;  304,000;  279,000;    0,000
345,369; -279,000; -254,000;    0,000
345,385;  278,000;  342,000;    0,000
345,400;  102,000;   47,000;    0,000
345,415;  -27,000;  112,000;    0,000
345,430; -289,000; -306,000;    0,000
345,446;  100,000;   99,000;    0,000
345,461;  -78,000; -101,000;    0,000
345,476;  178,000;  157,000;    0,000
345,491;  -14,000;   10,000;    0,000
345,507;  391,000;  391,000;    0,000
345,522;  -23,000;  -28,000;    0,000
345,537;  138,000;    7,000;    0,000
345,552;   84,000;  105,000;    0,000
345,568;  244,000;  335,000;    0,000
345,583;    1,000;   78,000;    0,000
345,598;  136,000;   40,000;    0,000
345,613;  -32,000; -180,000;    0,000
345,629;  225,000;  162,000;    0,000
345,644; -179,000; -102,000;    0,000
345,659;  180,000;  189,000;    0,000
345,674; -169,000; -180,000;    0,000
345,689;  -91,000; -238,000;    0,000
345,705; -120,000; -171,000;    0,000
345,720;  150,000;  155,000;    0,000
345,735; -111,000;  -53,000;    0,000
345,750;  259,000;  192,000;    0,000
345,766;  178,000;  209,000;    0,000
345,781; -127,000; -116,000;    0,000
345,796; 1604,000; 1562,000;    0,000
345,811; -138,000; -171,000;    0,000
345,826; -263,000; -222,000;    0,000
345,841; -186,000;   20,000;    0,000
345,857;    0,000;  -42,000;    0,000
345,872;   47,000;  119,000;    0,000
345,887; -212,000; -239,000;    0,000
345,902;   10,000;  -15,000;    0,000
345,917; -160,000; -106,000;    0,000
345,933;  231,000;  229,000;    0,000
345,948; -133,000; -172,000;    0,000
345,963;  -17,000;  -54,000;    0,000
345,978;   94,000;   59,000;    0,000
345,993;   67,000;  127,000;    0,000
346,008;   17,000;  -41,000;    0,000
346,024;  -65,000; -126,000;    0,000
346,039; -265,000; -229,000;    0,000
346,054;  -26,000;   57,000;    0,000
346,069;  -37,000; -152,000;    0,000
346,084;  -96,000;  -35,000;    0,000
346,099; -249,000; -179,000;    0,000
346,114;   -9,000;   63,000;    0,000
346,130; -288,000; -321,000;    0,000
346,145; -101,000; -172,000;    0,000
346,160; -229,000; -193,000;    0,000
346,175;  205,000;  208,000;    0,000
346,190; -111,000; -128,000;    0,000
346,205;   61,000;   71,000;    0,000
346,220; -167,000; -260,000;    0,000
346,235;  -75,000;  -27,000;    0,000
346,251; -184,000; -282,000;    0,000
346,266;  216,000;  400,000;    0,000
346,281; -118,000; -118,000;    0,000
346,296;   76,000;   -6,000;    0,000
346,311; -126,000; -219,000;    0,000
346,326;   47,000;  109,000;    0,000
346,341;  -75,000;  -80,000;    0,000
346,356;   54,000;   49,000;    0,000
346,371;  -93,000;  -89,000;    0,000
346,387;  -96,000;  -26,000;    0,000
346,402; -245,000; -277,000;    0,000
346,417;  148,000;  122,000;    0,000
346,432;   -2,000;    7,000;    0,000
346,447; -309,000; -295,000;    0,000
346,462;  339,000;  233,000;    0,000
346,477;    3,000;   53,000;    0,000
346,492;  -33,000;   43,000;    0,000
346,507;  274,000;  267,000;    0,000
346,522;   17,000;    9,000;    0,000
346,537;    9,000;  -96,000;    0,000
346,552;   35,000;   -3,000;    0,000
346,567;  715,000;  615,000;    0,000
346,582;  170,000;  250,000;    0,000
346,598;  318,000;  246,000;    0,000
346,613;  212,000;  140,000;    0,000
346,628; -153,000; -142,000;    0,000
346,643; -163,000; -228,000;    0,000
346,658;  254,000;  121,000;    0,000
346,673;  258,000;  239,000;    0,000
346,688;   11,000;  -36,000;    0,000
346,703; -125,000;   17,000;    0,000
346,718;  -10,000;  -24,000;    0,000
346,733;  310,000;  257,000;    0,000
346,748;  140,000;  209,000;    0,000
346,763;  -63,000;   32,000;    0,000
346,778; -193,000; -146,000;    0,000
346,793; -116,000;  -58,000;    0,000
346,808;  310,000;  190,000;    0,000
346,823;  -13,000;  -59,000;    0,000
346,838;   34,000;  138,000;    0,000
346,853;  -87,000;  -85,000;    0,000
346,868;  105,000;    3,000;    0,000
346,883;  -46,000; -107,000;    0,000
346,898; -179,000; -210,000;    0,000
346,913; -276,000; -105,000;    0,000
346,928;  -94,000;  -89,000;    0,000
346,943;  164,000;  160,000;    0,000
346,958;  234,000;  258,000;    0,000
346,973; -284,000; -345,000;    0,000
346,988;  353,000;  315,000;    0,000
347,003;  -66,000; -168,000;    0,000
347,018;  469,000;  494,000;    0,000
347,033;  -86,000;  -41,000;    0,000
347,048;  267,000;  303,000;    0,000
347,063; -150,000;  -88,000;    0,000
347,078;  -16,000;   96,000;    0,000
347,093; -148,000; -235,000;    0,000
347,108;  630,000;  571,000;    0,000
347,123;  -77,000;  -40,000;    0,000
347,138;  208,000;  168,000;    0,000
347,153;   11,000;   58,000;    0,000
347,168;  345,000;  334,000;    0,000
347,183;   68,000;   20,000;    0,000
347,198;  201,000;  234,000;    0,000
347,213;  -61,000;   10,000;    0,000
347,227;   83,000;  157,000;    0,000
347,242;  -98,000; -165,000;    0,000
347,257;   63,000;   90,000;    0,000
347,272;  -70,000; -185,000;    0,000
347,287; -179,000;  -87,000;    0,000
347,302; -179,000; -217,000;    0,000
347,317;  250,000;  201,000;    0,000
347,332;  -77,000; -117,000;    0,000
347,347; -170,000; -131,000;    0,000
347,362; -284,000; -257,000;    0,000
347,377;   22,000;   33,000;    0,000
347,392;  140,000;  139,000;    0,000
347,407;  105,000;   39,000;    0,000
347,421; -384,000; -351,000;    0,000
347,436;  -81,000;  -43,000;    0,000
347,451;  108,000;  129,000;    0,000
347,466; -217,000; -159,000;    0,000
347,481;  -94,000; -246,000;    0,000
347,496;   25,000;   48,000;    0,000
347,511; -277,000; -219,000;    0,000
347,526;  113,000;  242,000;    0,000
347,541; -135,000; -139,000;    0,000
347,556;  176,000;  151,000;    0,000
347,570;  200,000;  612,000;    0,000
347,585;  -37,000;   90,000;    0,000
347,600;  -18,000; -131,000;    0,000
347,615;  340,000;  326,000;    0,000
347,630;   21,000;   68,000;    0,000
347,645;   15,000;   46,000;    0,000
347,660;    5,000;   29,000;    0,000
347,675; -112,000;  -78,000;    0,000
347,689;    5,000;   93,000;    0,000
347,704;   46,000;  138,000;    0,000
347,719;  -11,000;  -87,000;    0,000
347,734;  242,000;  196,000;    0,000
347,749; -291,000; -261,000;    0,000
347,764;  160,000;  350,000;    0,000
347,779; -102,000;  -91,000;    0,000
347,793;  104,000;  184,000;    0,000
347,808; -190,000; -308,000;    0,000
347,823;  -18,000;   17,000;    0,000
347,838;  331,000;  295,000;    0,000
347,853;  -40,000;  -50,000;    0,000
347,868;  -29,000;   -8,000;    0,000
347,882;  -84,000;  -14,000;    0,000
347,897; -214,000; -225,000;    0,000
347,912;  185,000;  271,000;    0,000
347,927;  -47,000; -119,000;    0,000
347,942;  -77,000;   -8,000;    0,000
347,956;  101,000;  147,000;    0,000
347,971;  154,000;  231,000;    0,000
347,986; -158,000; -138,000;    0,000
348,001;   38,000;   76,000;    0,000
348,016; -199,000; -194,000;    0,000
348,030; -140,000; -125,000;    0,000
348,045; -122,000; -130,000;    0,000
348,060;  164,000;  261,000;    0,000
348,075;  -60,000;   -8,000;    0,000
348,090;  -66,000;   27,000;    0,000
348,104; -137,000; -192,000;    0,000
348,119;  -62,000;  -85,000;    0,000
348,134;  -95,000; -133,000;    0,000
348,149; -265,000; -316,000;    0,000
348,164;   36,000;  -18,000;    0,000
348,178; -107,000; -108,000;    0,000
348,193;  -86,000;  -46,000;    0,000
348,208;  124,000;  141,000;    0,000
348,223;   33,000;  160,000;    0,000
348,237;  173,000;  109,000;    0,000
348,252;  222,000;  174,000;    0,000
348,267;  166,000;  179,000;    0,000
348,282;   91,000;   99,000;    0,000
348,296;  -20,000;   42,000;    0,000
348,311;  -34,000;   99,000;    0,000
348,326;   92,000;  119,000;    0,000
348,341;  156,000;  -30,000;    0,000
348,355;    5,000;   75,000;    0,000
348,370;  -53,000;  -29,000;    0,000
348,385;  -46,000;  -63,000;    0,000
348,400;  211,000;  152,000;    0,000
348,414;  -25,000;  -21,000;    0,000
348,429;  -12,000;   30,000;    0,000
348,444;    9,000;  -95,000;    0,000
348,458; -336,000; -337,000;    0,000
348,473; -117,000;   18,000;    0,000
348,488; -247,000; -130,000;    0,000
348,503;   55,000;  139,000;    0,000
348,517; -166,000; -141,000;    0,000
348,532;  223,000;  177,000;    0,000
348,547;  -65,000;  -63,000;    0,000
348,561;  -36,000;   97,000;    0,000
348,576;   85,000;   -4,000;    0,000
348,591;   40,000;  -11,000;    0,000
348,606;  201,000;  101,000;    0,000
348,620;   89,000;   74,000;    0,000
348,635; -109,000;  -45,000;    0,000
348,650;  136,000;   72,000;    0,000
348,664; -329,000; -271,000;    0,000
348,679; -156,000;  -32,000;    0,000
348,694;  128,000;   19,000;    0,000
348,708;  217,000;  325,000;    0,000
348,723;  -35,000; -140,000;    0,000
348,738;   27,000;   24,000;    0,000
348,752; -123,000; -168,000;    0,000
348,767;  101,000;   39,000;    0,000
348,782; -240,000;  -93,000;    0,000
348,796;   -4,000;    2,000;    0,000
348,811; -305,000; -308,000;    0,000
348,826;   24,000;   32,000;    0,000
348,840; -206,000; -176,000;    0,000
348,855;  353,000;  325,000;    0,000
348,870; -317,000; -279,000;    0,000
348,884;  225,000;  210,000;    0,000
348,899; -123,000;   10,000;    0,000
348,914;  128,000;   20,000;    0,000
348,928; -306,000; -245,000;    0,000
348,943;  559,000;  628,000;    0,000
348,957;  -44,000;  -15,000;    0,000
348,972;  230,000;  289,000;    0,000
348,987;  -15,000;  -10,000;    0,000
349,001;  -68,000;  -41,000;    0,000
349,016;  -13,000;   54,000;    0,000
349,031;   85,000;   36,000;    0,000
349,045; -310,000; -287,000;    0,000
349,060;    4,000;   35,000;    0,000
349,074;  -45,000; -110,000;    0,000
349,089;   91,000;   89,000;    0,000
349,104;  148,000;  110,000;    0,000
349,118;  -30,000;  -28,000;    0,000
349,133; -271,000; -196,000;    0,000
349,147;  -77,000;  -37,000;    0,000
349,162; -211,000; -213,000;    0,000
349,177;  325,000;  315,000;    0,000
349,191; -252,000; -328,000;    0,000
349,206;   84,000;  168,000;    0,000
349,220;   59,000;  156,000;    0,000
349,235;  492,000;  525,000;    0,000
349,249;  -84,000;  -16,000;    0,000
349,264;   97,000;   88,000;    0,000
349,279; -173,000;  -36,000;    0,000
349,293;   35,000;  138,000;    0,000
349,308; -259,000; -197,000;    0,000
349,322;  267,000;  314,000;    0,000
349,337; -158,000; -220,000;    0,000
349,351;  139,000;   80,000;    0,000
349,366;  205,000;  125,000;    0,000
349,380;  104,000;  167,000;    0,000
349,395; -131,000;  -73,000;    0,000
349,410; -170,000;  -88,000;    0,000
349,424;   -1,000; -162,000;    0,000
349,439; -102,000;   76,000;    0,000
349,453; -215,000; -226,000;    0,000
349,468;  352,000;  347,000;    0,000
349,482;  -28,000;  -98,000;    0,000
349,497;  107,000;   69,000;    0,000
349,511;  -56,000; -144,000;    0,000
349,526;    2,000;   71,000;    0,000
349,540;  133,000;    8,000;    0,000
349,555;    3,000;  131,000;    0,000
349,569; -269,000; -127,000;    0,000
349,584;  -79,000; -214,000;    0,000
349,598; -160,000; -178,000;    0,000
349,613;  224,000;  200,000;    0,000
349,627;   51,000;  126,000;    0,000
349,642;  111,000;   52,000;    0,000
349,656; -126,000; -121,000;    0,000
349,671;  -35,000;  -77,000;    0,000
349,685;  385,000;  306,000;    0,000
349,700;  -47,000;  -47,000;    0,000
349,714; -127,000; -230,000;    0,000
349,729; -164,000; -111,000;    0,000
349,743;   24,000;   22,000;    0,000
349,758;  504,000;  387,000;    0,000
349,772;  -88,000; -121,000;    0,000
349,787;  128,000;   15,000;    0,000
349,801; -327,000; -265,000;    0,000
349,816;  -35,000;  117,000;    0,000
349,830;   63,000;   24,000;    0,000
349,845; -163,000; -209,000;    0,000
349,859;  -87,000;  -74,000;    0,000
349,874;  172,000;  133,000;    0,000
349,888;  -54,000; -119,000;    0,000
349,903;  131,000;  180,000;    0,000
349,917;  -40,000;  -78,000;    0,000
349,931;  232,000;  345,000;    0,000
349,946;  305,000;  189,000;    0,000
349,960;   44,000;   32,000;    0,000
349,975;  -99,000;  -50,000;    0,000
349,989;  -59,000; -121,000;    0,000
350,004; -363,000; -337,000;    0,000
350,018;   76,000;  154,000;    0,000
350,033; -177,000; -138,000;    0,000
350,047;  -38,000;  -79,000;    0,000
350,061; -174,000; -252,000;    0,000
350,076;   54,000; -129,000;    0,000
350,090;   91,000;  -19,000;    0,000
350,105;  195,000;  163,000;    0,000
350,119; -154,000; -237,000;    0,000
350,133;   46,000;   30,000;    0,000
350,148; -196,000; -248,000;    0,000
350,162;  207,000;  164,000;    0,000
350,177;   27,000;   56,000;    0,000
350,191;  -20,000;    3,000;    0,000
350,205; -220,000; -139,000;    0,000
350,220;  237,000;  244,000;    0,000
350,234; -101,000; -136,000;    0,000
350,249;  133,000;  144,000;    0,000
350,263; -211,000; -196,000;    0,000
350,277; -101,000; -128,000;    0,000
350,292;  -46,000;   24,000;    0,000
350,306; -125,000;  -66,000;    0,000
350,321; -518,000; -446,000;    0,000
350,335;  210,000;  166,000;    0,000
350,349;  157,000;  138,000;    0,000
350,364;  148,000;   62,000;    0,000
350,378;  -51,000; -141,000;    0,000
350,392; -162,000;  -53,000;    0,000
350,407;   42,000;  -89,000;    0,000
350,421;  242,000;  337,000;    0,000
350,435; -161,000; -161,000;    0,000
350,450;  -34,000; -125,000;    0,000
350,464; -172,000; -236,000;    0,000
350,479;   94,000;  103,000;    0,000
350,493; -298,000; -293,000;    0,000
350,507;  -41,000;  -31,000;    0,000
350,522;   20,000;    8,000;    0,000
350,536;  141,000;  242,000;    0,000
350,550; -124,000; -120,000;    0,000
350,565;   70,000;   61,000;    0,000
350,579; -369,000; -295,000;    0,000
350,593;  375,000;  366,000;    0,000
350,608; -440,000; -355,000;    0,000
350,622; -115,000; -132,000;    0,000
350,636; -102,000;  -73,000;    0,000
350,650;  151,000;  204,000;    0,000
350,665;   37,000;   77,000;    0,000
350,679;  -99,000; -106,000;    0,000
350,693; -220,000; -300,000;    0,000
350,708;   80,000;   51,000;    0,000
350,722;  189,000;  100,000;    0,000
350,736;  -72,000; -114,000;    0,000
350,751;  -62,000;  -81,000;    0,000
350,765;  -85,000;  -28,000;    0,000
350,779; -163,000; -138,000;    0,000
350,793;  174,000;   88,000;    0,000
350,808;  -41,000;  -69,000;    0,000
350,822;   32,000;  -81,000;    0,000
350,836;  329,000;  236,000;    0,000
350,851;  120,000;  205,000;    0,000
350,865; -444,000; -398,000;    0,000
350,879;   41,000;   31,000;    0,000
350,893;  117,000;  174,000;    0,000
350,908;  156,000;  176,000;    0,000
350,922; -291,000; -297,000;    0,000
350,936;  -63,000;  -51,000;    0,000
350,950; -274,000; -428,000;    0,000
350,965;   96,000;  137,000;    0,000
350,979;   11,000;  -84,000;    0,000
350,993;  220,000;  153,000;    0,000
351,007;   64,000;   17,000;    0,000
351,022;  -82,000; -138,000;    0,000
351,036; -153,000; -113,000;    0,000
351,050;  -57,000; -100,000;    0,000
351,064; -475,000; -437,000;    0,000
351,079;   29,000;  118,000;    0,000
351,093;  -66,000; -235,000;    0,000
351,107;  123,000;  163,000;    0,000
351,121;   59,000;  -58,000;    0,000
351,135; -194,000; -181,000;    0,000
351,150; -156,000; -175,000;    0,000
351,164; -108,000; -190,000;    0,000
351,178; -217,000; -230,000;    0,000
351,192;  299,000;  109,000;    0,000
351,207;  -70,000; -100,000;    0,000
351,221;   63,000;   40,000;    0,000
351,235;   -9,000;   11,000;    0,000
351,249; -165,000; -247,000;    0,000
351,263; -523,000; -527,000;    0,000
351,278;   14,000;  -62,000;    0,000
351,292;  -15,000;   26,000;    0,000
351,306; -167,000; -153,000;    0,000
351,320; -301,000; -321,000;    0,000
351,334;  202,000;  168,000;    0,000
351,348;  -64,000;  -55,000;    0,000
351,363;  -40,000;  -99,000;    0,000
351,377;  -84,000; -112,000;    0,000
351,391;  -23,000;  -87,000;    0,000
351,405;  -74,000; -140,000;    0,000
351,419;   41,000;   76,000;    0,000
351,434;  -35,000;   -7,000;    0,000
351,448;   67,000;   86,000;    0,000
351,462;   24,000;  -67,000;    0,000
351,476;   36,000;   86,000;    0,000
351,490;  -42,000;  -86,000;    0,000
351,504;  -52,000;  -12,000;    0,000
351,518;   93,000;   47,000;    0,000
351,533;  -93,000;  -36,000;    0,000
351,547;  -97,000;  -67,000;    0,000
351,561;  -74,000;  -65,000;    0,000
351,575;  153,000;  148,000;    0,000
351,589;  466,000;  429,000;    0,000
351,603; -219,000; -264,000;    0,000
351,617;  175,000;  218,000;    0,000
351,632; -146,000; -144,000;    0,000
351,646;  100,000;  124,000;    0,000
351,660; -210,000; -171,000;    0,000
351,674;  -12,000; -146,000;    0,000
351,688;    5,000;  -43,000;    0,000
351,702;  278,000;  252,000;    0,000
351,716;  405,000;  286,000;    0,000
351,730;  130,000;  122,000;    0,000
351,744; -377,000; -305,000;    0,000
351,759; -174,000; -180,000;    0,000
351,773; -418,000; -420,000;    0,000
351,787;  -14,000;   23,000;    0,000
351,801;  -74,000;  -15,000;    0,000
351,815; -129,000; -111,000;    0,000
351,829;  -26,000;   16,000;    0,000
351,843;  -98,000;  -40,000;    0,000
351,857;  -40,000;   20,000;    0,000
351,871;  160,000;  168,000;    0,000
351,885; -327,000; -283,000;    0,000
351,899;   18,000;   52,000;    0,000
351,913;  -72,000;  -84,000;    0,000
351,928;   37,000;    4,000;    0,000
351,942;  -21,000;   22,000;    0,000
351,956;  294,000;  318,000;    0,000
351,970; -122,000; -142,000;    0,000
351,984; -215,000; -204,000;    0,000
351,998;  134,000;   36,000;    0,000
352,012; -225,000; -367,000;    0,000
352,026;  -70,000;  -55,000;    0,000
352,040;   88,000;  151,000;    0,000
352,054;   94,000;  178,000;    0,000
352,068;  324,000;  380,000;    0,000
352,082;  147,000;   59,000;    0,000
352,096;  -58,000;  -28,000;    0,000
352,110;  155,000;   72,000;    0,000
352,124; -170,000; -205,000;    0,000
352,138;   39,000;  108,000;    0,000
352,152;   -1,000;  -47,000;    0,000
352,166; -264,000; -162,000;    0,000
352,180;  401,000;  446,000;    0,000
352,194;  -84,000;  -12,000;    0,000
352,208;  -27,000;  -74,000;    0,000
352,222;   23,000;  -43,000;    0,000
352,236;  367,000;  369,000;    0,000
352,250;  178,000;  179,000;    0,000
352,264;  165,000;  204,000;    0,000
352,278;  -92,000;  -17,000;    0,000
352,292;   65,000;   -4,000;    0,000
352,306; -209,000; -145,000;    0,000
352,320;  -90,000;  -35,000;    0,000
352,334;  -24,000;  -68,000;    0,000
352,348;  461,000;  457,000;    0,000
352,362; -254,000; -204,000;    0,000
352,376;   29,000;   17,000;    0,000
352,390; -472,000; -473,000;    0,000
352,404;  -61,000;   52,000;    0,000
352,418;  -92,000;  -51,000;    0,000
352,432;  358,000;  308,000;    0,000
352,446;   42,000;   37,000;    0,000
352,460;  -77,000;  -25,000;    0,000
352,474; -231,000; -222,000;    0,000
352,488;    1,000;   60,000;    0,000
352,502; -312,000; -342,000;    0,000
352,516;   54,000;  134,000;    0,000
352,530; -115,000; -122,000;    0,000
352,544;  -48,000;  -29,000;    0,000
352,558;  -64,000;  -92,000;    0,000
352,572;  349,000;  221,000;    0,000
352,586;  232,000;  109,000;    0,000
352,600;   32,000;   59,000;    0,000
352,613; -147,000; -146,000;    0,000
352,627;  121,000;  170,000;    0,000
352,641;   58,000;  -51,000;    0,000
352,655;   61,000;  206,000;    0,000
352,669;  263,000;  198,000;    0,000
352,683;   62,000;  111,000;    0,000
352,697; -202,000; -159,000;    0,000
352,711;  142,000;  162,000;    0,000
352,725; -242,000; -117,000;    0,000
352,739;  349,000;  291,000;    0,000
352,753;  -10,000;  -20,000;    0,000
352,767;  -56,000;  -10,000;    0,000
352,780; -328,000; -373,000;    0,000
352,794;  180,000;  169,000;    0,000
352,808;   36,000;  -42,000;    0,000
352,822; -116,000;  -62,000;    0,000
352,836; -377,000; -557,000;    0,000
352,850;  179,000;  183,000;    0,000
352,864; -231,000; -173,000;    0,000
352,878;   99,000;  -43,000;    0,000
352,892;  -45,000;  -75,000;    0,000
352,905;  243,000;  293,000;    0,000
352,919; -245,000; -268,000;    0,000
352,933;   90,000;   83,000;    0,000
352,947; -335,000; -331,000;    0,000
352,961;  151,000;  102,000;    0,000
352,975;  -19,000; -123,000;    0,000
352,989;   91,000;  138,000;    0,000
353,003; -236,000; -194,000;    0,000
353,016;  -14,000;  106,000;    0,000
353,030;  -69,000;  -13,000;    0,000
353,044;  100,000;   62,000;    0,000
353,058; -225,000; -117,000;    0,000
353,072;  265,000;  161,000;    0,000
353,086; -102,000;  -65,000;    0,000
353,099;  349,000;  367,000;    0,000
353,113; -225,000; -247,000;    0,000
353,127;  127,000;  341,000;    0,000
353,141;  -80,000; -207,000;    0,000
353,155;  -28,000;   27,000;    0,000
353,169;  238,000;  344,000;    0,000
353,182;  -17,000;   82,000;    0,000
353,196; -273,000; -291,000;    0,000
353,210; -223,000; -154,000;    0,000
353,224; -105,000;  -26,000;    0,000
353,238;  234,000;  290,000;    0,000
353,251;  429,000;  327,000;    0,000
353,265;   39,000;   88,000;    0,000
353,279; -196,000; -307,000;    0,000
353,293;  109,000;  155,000;    0,000
353,307; -120,000; -111,000;    0,000
353,320;  268,000;  287,000;    0,000
353,334;   47,000;    8,000;    0,000
353,348;   87,000;   42,000;    0,000
353,362;   46,000;   80,000;    0,000
353,376;  149,000;  -34,000;    0,000
353,389; -339,000; -236,000;    0,000
353,403;  269,000;  160,000;    0,000
353,417;  -83,000; -193,000;    0,000
353,431;  -74,000; -162,000;    0,000
353,445; -378,000; -415,000;    0,000
353,458;  120,000;  -30,000;    0,000
353,472;  214,000;  130,000;    0,000
353,486;   68,000;    7,000;    0,000
353,500;  320,000;  373,000;    0,000
353,513;  112,000;   36,000;    0,000
353,527;   35,000;   65,000;    0,000
353,541; -126,000;  -81,000;    0,000
353,555;  -97,000;  -52,000;    0,000
353,568;   79,000;   28,000;    0,000
353,582; -115,000;  -94,000;    0,000
353,596;  191,000;  284,000;    0,000
353,610; -264,000; -260,000;    0,000
353,623;   59,000;   54,000;    0,000
353,637;   77,000;   -8,000;    0,000
353,651;  176,000;  223,000;    0,000
353,664;   97,000;  156,000;    0,000
353,678;  -59,000;   68,000;    0,000
353,692;  -75,000; -237,000;    0,000
353,706;   -8,000;   -6,000;    0,000
353,719; -177,000;   -4,000;    0,000
353,733;  -52,000;   12,000;    0,000
353,747; -600,000; -480,000;    0,000
353,760;  -26,000;   53,000;    0,000
353,774; -249,000; -339,000;    0,000
353,788;  197,000;  378,000;    0,000
353,802;  163,000;  142,000;    0,000
353,815;  -87,000;    0,000;    0,000
353,829;   20,000;    5,000;    0,000
353,843;   53,000; -150,000;    0,000
353,856;  160,000;  197,000;    0,000
353,870;  215,000;  197,000;    0,000
353,884; -220,000; -214,000;    0,000
353,897;  343,000;  282,000;    0,000
353,911;    4,000;   53,000;    0,000
353,925;  -31,000;  -50,000;    0,000
353,938;    9,000;  -67,000;    0,000
353,952;  251,000;  185,000;    0,000
353,966;   37,000;   39,000;    0,000
353,979;  -73,000; -122,000;    0,000
353,993;   66,000;   75,000;    0,000
354,007;   82,000;  -32,000;    0,000
354,020; -223,000; -203,000;    0,000
354,034;  318,000;  291,000;    0,000
354,048; -269,000; -249,000;    0,000
354,061;  118,000;   19,000;    0,000
354,075; -144,000; -136,000;    0,000
354,089; -154,000; -104,000;    0,000
354,102; -222,000; -144,000;    0,000
354,116;  161,000;  109,000;    0,000
354,129;  274,000;  270,000;    0,000
354,143;  -11,000;   58,000;    0,000
354,157;  242,000;  248,000;    0,000
354,170;  100,000;  128,000;    0,000
354,184;  774,000;  709,000;    0,000
354,198; -132,000;   15,000;    0,000
354,211; -296,000; -265,000;    0,000
354,225;  158,000;  174,000;    0,000
354,238; -243,000; -202,000;    0,000
354,252;    0,000;   32,000;    0,000
354,266;  -13,000;  -32,000;    0,000
354,279;  153,000;   79,000;    0,000
354,293; -122,000; -103,000;    0,000
354,306;  176,000;  263,000;    0,000
354,320; -119,000;  -10,000;    0,000
354,334;  107,000;   88,000;    0,000
354,347; -162,000; -186,000;    0,000
354,361;  392,000;  346,000;    0,000
354,374; -131,000;  -64,000;    0,000
354,388;  286,000;  159,000;    0,000
354,401; -149,000; -220,000;    0,000
354,415;  126,000;  195,000;    0,000
354,429;  -13,000;   19,000;    0,000
354,442;  188,000;  168,000;    0,000
354,456;  -44,000; -182,000;    0,000
354,469;  389,000;  364,000;    0,000
354,483; -408,000; -482,000;    0,000
354,496;  997,000;  981,000;    0,000
354,510; -369,000; -366,000;    0,000
354,524;  -65,000;  -73,000;    0,000
354,537;  -98,000; -114,000;    0,000
354,551;   87,000;   43,000;    0,000
354,564;  -30,000; -133,000;    0,000
354,578;  -21,000;   23,000;    0,000
354,591; -163,000; -120,000;    0,000
354,605;  408,000;  325,000;    0,000
354,618; -309,000; -298,000;    0,000
354,632;  174,000;  161,000;    0,000
354,645; -231,000; -202,000;    0,000
354,659;  282,000;  210,000;    0,000
354,672;  209,000;  225,000;    0,000
354,686; -145,000; -237,000;    0,000
354,699;  140,000;   79,000;    0,000
354,713;  164,000;  109,000;    0,000
354,726;  -46,000; -129,000;    0,000
354,740;   48,000;   74,000;    0,000
354,753; -103,000; -106,000;    0,000
354,767;   57,000;   83,000;    0,000
354,780; -225,000; -189,000;    0,000
354,794;  126,000;  261,000;    0,000
354,807;  121,000;   83,000;    0,000
354,821;  -56,000;   63,000;    0,000
354,834;  268,000;  408,000;    0,000
354,848;   87,000;   43,000;    0,000
354,861; -250,000; -201,000;    0,000
354,875;  -18,000;   -9,000;    0,000
354,888; -303,000; -224,000;    0,000
354,902;  -83,000;  -46,000;    0,000
354,915; -369,000; -310,000;    0,000
354,929;  176,000;  159,000;    0,000
354,942; -214,000; -280,000;    0,000
354,956;  -78,000; -142,000;    0,000
354,969;  -84,000; -153,000;    0,000
354,983;  217,000;  139,000;    0,000
354,996; -167,000; -132,000;    0,000
355,010;   82,000;   24,000;    0,000
355,023;  110,000;   79,000;    0,000
355,036;   19,000;    5,000;    0,000
355,050; -318,000; -296,000;    0,000
355,063; -124,000;   40,000;    0,000
355,077; -340,000; -228,000;    0,000
355,090;  -64,000;  -43,000;    0,000
355,104; -193,000; -217,000;    0,000
355,117;  -28,000; -104,000;    0,000
355,130; -619,000; -566,000;    0,000
355,144; -107,000;   -4,000;    0,000
355,157;  -27,000; -109,000;    0,000
355,171;  297,000;  169,000;    0,000
355,184;  105,000;   52,000;    0,000
355,198;  -16,000;   49,000;    0,000
355,211; -274,000; -314,000;    0,000
355,224;  246,000;  133,000;    0,000
355,238;  200,000;  267,000;    0,000
355,251;   30,000;  134,000;    0,000
355,265; -113,000;  -53,000;    0,000
355,278;   60,000;   85,000;    0,000
355,291; -176,000; -141,000;    0,000
355,305;  301,000;  163,000;    0,000
355,318;  264,000;  355,000;    0,000
355,332;  -95,000;  119,000;    0,000
355,345;   11,000;  -67,000;    0,000
355,358;  245,000;  223,000;    0,000
355,372; -368,000; -378,000;    0,000
355,385;   77,000;   59,000;    0,000
355,398; -288,000; -194,000;    0,000
355,412;  -33,000;  114,000;    0,000
355,425; -262,000;  -16,000;    0,000
355,438;   69,000;   19,000;    0,000
355,452;   86,000;  150,000;    0,000
355,465;  427,000;  485,000;    0,000
355,479;  219,000;  217,000;    0,000
355,492;   90,000;  250,000;    0,000
355,505;  268,000;  300,000;    0,000
355,519;   24,000;   19,000;    0,000
355,532;  123,000;   97,000;    0,000
355,545; -109,000; -190,000;    0,000
355,559;  174,000;  197,000;    0,000
355,572;  119,000;  130,000;    0,000
355,585;   13,000;   12,000;    0,000
355,599; -371,000; -300,000;    0,000
355,612; -257,000; -311,000;    0,000
355,625;   90,000;   92,000;    0,000
355,639;  105,000;  149,000;    0,000
355,652; -138,000; -116,000;    0,000
355,665; -234,000; -258,000;    0,000
355,679;  -95,000; -102,000;    0,000
355,692;  -42,000;  -98,000;    0,000
355,705;  336,000;  278,000;    0,000
355,718; -360,000; -316,000;    0,000
355,732;   70,000;  151,000;    0,000
355,745; -174,000; -123,000;    0,000
355,758;  -42,000;  -41,000;    0,000
355,772; -323,000; -239,000;    0,000
355,785;  195,000;  146,000;    0,000
355,798; -288,000; -126,000;    0,000
355,811;  -40,000;  -26,000;    0,000
355,825; -210,000; -326,000;    0,000
355,838;  -16,000;   60,000;    0,000
355,851; -151,000; -175,000;    0,000
355,865;  239,000;  199,000;    0,000
355,878; -319,000; -393,000;    0,000
355,891;  140,000;  241,000;    0,000
355,904; -193,000; -262,000;    0,000
355,918; -132,000; -122,000;    0,000
355,931; -245,000; -288,000;    0,000
355,944;   86,000;  105,000;    0,000
355,957;  -29,000;   -9,000;    0,000
355,971;   59,000;  123,000;    0,000
355,984; -229,000; -149,000;    0,000
355,997;   53,000;   74,000;    0,000
356,010; -102,000;  -17,000;    0,000
356,024;  347,000;  207,000;    0,000
356,037; -207,000; -222,000;    0,000
356,050;  121,000;   81,000;    0,000
356,063; -348,000; -231,000;    0,000
356,077;  202,000;  279,000;    0,000
356,090; -211,000; -214,000;    0,000
356,103;   62,000;   55,000;    0,000
356,116; -234,000; -139,000;    0,000
356,129;  -73,000; -140,000;    0,000
356,143; -270,000; -258,000;    0,000
356,156;  146,000;  155,000;    0,000
356,169;  -98,000;  -78,000;    0,000
356,182;  -38,000;   32,000;    0,000
356,196;  -97,000; -198,000;    0,000
356,209;  138,000;  177,000;    0,000
356,222; -256,000; -182,000;    0,000
356,235; -114,000; -159,000;    0,000
356,248; -108,000; -132,000;    0,000
356,261;   27,000;   77,000;    0,000
356,275;   70,000;   85,000;    0,000
356,288;  -91,000;   21,000;    0,000
356,301;  154,000;  195,000;    0,000
356,314;  347,000;  388,000;    0,000
356,327; -117,000; -123,000;    0,000
356,341;  -48,000;  -70,000;    0,000
356,354; -472,000; -407,000;    0,000
356,367;  280,000;  279,000;    0,000
356,380; -125,000; -152,000;    0,000
356,393;    9,000;    6,000;    0,000
356,406;   87,000;  133,000;    0,000
356,420;  189,000;  112,000;    0,000
356,433; -213,000; -126,000;    0,000
356,446; -105,000; -150,000;    0,000
356,459; -146,000; -113,000;    0,000
356,472;  -97,000;  -80,000;    0,000
356,485; -110,000; -138,000;    0,000
356,498;  183,000;  185,000;    0,000
356,512;  -99,000;  -97,000;    0,000
356,525;  174,000;  121,000;    0,000
356,538; -251,000; -326,000;    0,000
356,551;  -72,000;  -55,000;    0,000
356,564;  -93,000; -125,000;    0,000
356,577;   62,000;   39,000;    0,000
356,590; -330,000; -267,000;    0,000
356,603; -106,000;  -79,000;    0,000
356,617;   81,000;  147,000;    0,000
356,630;  101,000;  189,000;    0,000
356,643; -180,000; -208,000;    0,000
356,656;   16,000;   74,000;    0,000
356,669; -232,000; -181,000;    0,000
356,682; -146,000; -121,000;    0,000
356,695; -156,000;  -23,000;    0,000
356,708;   17,000;  -74,000;    0,000
356,721;  -67,000; -119,000;    0,000
356,734;  235,000;  331,000;    0,000
356,748;  296,000;  370,000;    0,000
356,761;   67,000;   44,000;    0,000
356,774;  -46,000;  -99,000;    0,000
356,787;   -6,000;   22,000;    0,000
356,800; -263,000; -282,000;    0,000
356,813;  547,000;  549,000;    0,000
356,826; -351,000; -328,000;    0,000
356,839;  210,000;  254,000;    0,000
356,852;   46,000;  -15,000;    0,000
356,865; -116,000; -237,000;    0,000
356,878;   77,000;  -49,000;    0,000
356,891;  -42,000; -142,000;    0,000
356,904;   24,000;  -21,000;    0,000
356,917;   64,000;  144,000;    0,000
356,930; -247,000; -214,000;    0,000
356,943;  142,000;  185,000;    0,000
356,957;  150,000;  205,000;    0,000
356,970; -219,000; -231,000;    0,000
356,983; -197,000; -202,000;    0,000
356,996;  366,000;  257,000;    0,000
357,009;  -72,000;  -91,000;    0,000
357,022; -208,000;  -18,000;    0,000
357,035; -122,000;  -67,000;    0,000
357,048;  117,000;  237,000;    0,000
357,061; -166,000; -131,000;    0,000
357,074;  -59,000;  -58,000;    0,000
357,087;   89,000;  -13,000;    0,000
357,100; -110,000;  -52,000;    0,000
357,113;   20,000;   15,000;    0,000
357,126; -124,000;  -10,000;    0,000
357,139;  -10,000;  -37,000;    0,000
357,152;  402,000;  405,000;    0,000
357,165; -224,000; -112,000;    0,000
357,178;   -1,000;   15,000;    0,000
357,191; -505,000; -381,000;    0,000
357,204;  -38,000;  -37,000;    0,000
357,217;  188,000;  133,000;    0,000
357,230;  133,000;   94,000;    0,000
357,243;  -19,000;   52,000;    0,000
357,256;  -49,000;   57,000;    0,000
357,269; -338,000; -360,000;    0,000
357,282;  199,000;  200,000;    0,000
357,295; -254,000; -285,000;    0,000
357,308;   92,000;   34,000;    0,000
357,320; -345,000; -245,000;    0,000
357,333;  446,000;  380,000;    0,000
357,346; -295,000; -254,000;    0,000
357,359;  144,000;  163,000;    0,000
357,372; -109,000; -103,000;    0,000
357,385;  383,000;  349,000;    0,000
357,398;   82,000;  136,000;    0,000
357,411;   10,000;   21,000;    0,000
357,424;  167,000;  202,000;    0,000
357,437;  221,000;  126,000;    0,000
357,450; -205,000; -165,000;    0,000
357,463; -102,000;  -44,000;    0,000
357,476;   10,000;  -67,000;    0,000
357,489;  693,000;  661,000;    0,000
357,502; -196,000; -243,000;    0,000
357,515;   17,000;  -55,000;    0,000
357,528;   28,000;   12,000;    0,000
357,540;   -4,000;   32,000;    0,000
357,553;  100,000;  107,000;    0,000
357,566;   53,000;   82,000;    0,000
357,579;  -70,000; -139,000;    0,000
357,592;  305,000;  432,000;    0,000
357,605;  171,000;  202,000;    0,000
357,618;  159,000;  163,000;    0,000
357,631;   -2,000;  -63,000;    0,000
357,644;   36,000;   28,000;    0,000
357,657; -302,000; -276,000;    0,000
357,669; -103,000; -127,000;    0,000
357,682; -111,000; -116,000;    0,000
357,695;  154,000;  220,000;    0,000
357,708; -113,000; -116,000;    0,000
357,721;  -88,000; -108,000;    0,000
357,734; -230,000; -203,000;    0,000
357,747;  170,000;  288,000;    0,000
357,760;  -96,000; -122,000;    0,000
357,772;  189,000;  154,000;    0,000
357,785; -155,000; -176,000;    0,000
357,798; -152,000; -180,000;    0,000
357,811; -110,000; -154,000;    0,000
357,824;  -41,000;  -47,000;    0,000
357,837;  -74,000;   25,000;    0,000
357,850; -210,000; -284,000;    0,000
357,862; -291,000; -388,000;    0,000
357,875;  122,000;  139,000;    0,000
357,888; -227,000; -351,000;    0,000
357,901;  210,000;  130,000;    0,000
357,914;  -72,000;   12,000;    0,000
357,927;   56,000;  148,000;    0,000
357,939; -198,000; -124,000;    0,000
357,952;  108,000;  156,000;    0,000
357,965;  114,000;   85,000;    0,000
357,978;   27,000;  -30,000;    0,000
357,991;  145,000;   86,000;    0,000
358,003; -142,000; -186,000;    0,000
358,016;    7,000; -100,000;    0,000
358,029; -302,000; -242,000;    0,000
358,042;  435,000;  343,000;    0,000
358,055;  376,000;  367,000;    0,000
358,067; -220,000; -171,000;    0,000
358,080;    7,000;   12,000;    0,000
358,093;    8,000;  -43,000;    0,000
358,106;   81,000;  219,000;    0,000
358,119;  -23,000;   -8,000;    0,000
358,131;   91,000;   20,000;    0,000
358,144; -171,000;  -70,000;    0,000
358,157;   75,000;   62,000;    0,000
358,170;    8,000;  -80,000;    0,000
358,183;   60,000;  208,000;    0,000
358,195; -495,000; -372,000;    0,000
358,208; -122,000;  -75,000;    0,000
358,221;  -37,000;  135,000;    0,000
358,234;  195,000;  114,000;    0,000
358,246; -151,000; -284,000;    0,000
358,259;  -58,000;  -68,000;    0,000
358,272; -182,000; -177,000;    0,000
358,285;  -13,000;  -13,000;    0,000
358,297;   -9,000;  -37,000;    0,000
358,310;   44,000;  182,000;    0,000
358,323;   26,000;    0,000;    0,000
358,336;  -52,000;  -55,000;    0,000
358,348;  -91,000;  -42,000;    0,000
358,361;  223,000;  223,000;    0,000
358,374;   23,000;  189,000;    0,000
358,387;  158,000;  162,000;    0,000
358,399;  137,000;   85,000;    0,000
358,412;  168,000;  217,000;    0,000
358,425; -241,000; -346,000;    0,000
358,437; -131,000; -116,000;    0,000
358,450;  -52,000;  -39,000;    0,000
358,463; -110,000;  -52,000;    0,000
358,476;    5,000;  -17,000;    0,000
358,488; -287,000; -201,000;    0,000
358,501; -132,000; -102,000;    0,000
358,514;   -3,000;   60,000;    0,000
358,526;  100,000;   82,000;    0,000
358,539;  230,000;  243,000;    0,000
358,552;  -22,000;  -36,000;    0,000
358,564;   73,000;    1,000;    0,000
358,577; -238,000; -254,000;    0,000
358,590;  153,000;  201,000;    0,000
358,602;   14,000;  -56,000;    0,000
358,615;  556,000;  654,000;    0,000
358,628;  182,000;   21,000;    0,000
358,641;  -26,000;  -55,000;    0,000
358,653; -216,000; -337,000;    0,000
358,666;    8,000;  -14,000;    0,000
358,678;  125,000;  161,000;    0,000
358,691;  136,000;   60,000;    0,000
358,704;   30,000;   17,000;    0,000
358,716; -141,000; -143,000;    0,000
358,729; -449,000; -385,000;    0,000
358,742; -182,000; -108,000;    0,000
358,754;   39,000;   30,000;    0,000
358,767;   18,000;  102,000;    0,000
358,780; -379,000; -277,000;    0,000
358,792;  107,000;   55,000;    0,000
358,805;  -42,000;  -42,000;    0,000
358,818; -295,000; -141,000;    0,000
358,830;  -28,000; -139,000;    0,000
358,843;    2,000;   25,000;    0,000
358,855; -265,000; -238,000;    0,000
358,868;   92,000;  231,000;    0,000
358,881; -284,000; -390,000;    0,000
358,893;  -91,000; -114,000;    0,000
358,906; -404,000; -389,000;    0,000
358,919;  111,000;  139,000;    0,000
358,931; -245,000; -136,000;    0,000
358,944; -251,000; -217,000;    0,000
358,956;  208,000;  211,000;    0,000
358,969;  355,000;  327,000;    0,000
358,982;  141,000;   42,000;    0,000
358,994;  245,000;  220,000;    0,000
359,007;   12,000;  -58,000;    0,000
359,019;  463,000;  465,000;    0,000
359,032; -301,000; -248,000;    0,000
359,044;  366,000;  221,000;    0,000
359,057; -224,000; -198,000;    0,000
359,070;   47,000;   83,000;    0,000
359,082; 1647,000; 1641,000;    0,000
359,095;    7,000;   40,000;    0,000
359,107;  -88,000; -159,000;    0,000
359,120;   43,000;   97,000;    0,000
359,132;  -55,000;  -54,000;    0,000
359,145;  207,000;  182,000;    0,000
359,158;   53,000;  -60,000;    0,000
359,170;  201,000;  146,000;    0,000
359,183; -241,000; -149,000;    0,000
359,195;  508,000;  499,000;    0,000
359,208; -395,000; -245,000;    0,000
359,220;  154,000;  156,000;    0,000
359,233;   36,000;  -61,000;    0,000
359,245;   47,000;   37,000;    0,000
359,258;  -45,000;  -46,000;    0,000
359,270;  306,000;  159,000;    0,000
359,283; -388,000; -318,000;    0,000
359,296;  261,000;  269,000;    0,000
359,308; -231,000;  -95,000;    0,000
359,321;  153,000;  161,000;    0,000
359,333;  380,000;  380,000;    0,000
359,346;  259,000;  289,000;    0,000
359,358;  -54,000;    7,000;    0,000
359,371; -188,000; -188,000;    0,000
359,383; -160,000; -151,000;    0,000
359,396;  455,000;  460,000;    0,000
359,408;   45,000;    7,000;    0,000
359,421; -204,000; -213,000;    0,000
359,433;  -27,000;   -2,000;    0,000
359,446;  -17,000;  146,000;    0,000
359,458;  -33,000;  -48,000;    0,000
359,471;  -26,000;   25,000;    0,000
359,483; -249,000; -184,000;    0,000
359,496;  210,000;  183,000;    0,000
359,508; -205,000; -213,000;    0,000
359,520;  109,000;   70,000;    0,000
359,533;  -74,000; -157,000;    0,000
359,545;  245,000;  260,000;    0,000
359,558;   84,000;  -52,000;    0,000
359,570;   73,000;  121,000;    0,000
359,583;  140,000;  205,000;    0,000
359,595;  122,000;   53,000;    0,000
359,608;  138,000;   58,000;    0,000
359,620; -235,000; -244,000;    0,000
359,633; -124,000;  -43,000;    0,000
359,645;   39,000;  -26,000;    0,000
359,658;  180,000;  231,000;    0,000
359,670;  562,000;  407,000;    0,000
359,682;   -2,000;   70,000;    0,000
359,695;  135,000;  134,000;    0,000
359,707;  417,000;  431,000;    0,000
359,720; -227,000; -215,000;    0,000
359,732; -140,000;  -44,000;    0,000
359,745;   92,000;   45,000;    0,000
359,757;  139,000;  187,000;    0,000
359,769;  210,000;  189,000;    0,000
359,782;   70,000;  121,000;    0,000
359,794;   73,000;   12,000;    0,000
359,807;  -69,000; -125,000;    0,000
359,819;   97,000;  195,000;    0,000
359,831; -230,000; -361,000;    0,000
359,844;  112,000;  106,000;    0,000
359,856;  106,000;  160,000;    0,000
359,869;  397,000;  471,000;    0,000
359,881;  112,000;   44,000;    0,000
359,893;  -34,000;  -27,000;    0,000
359,906;  -95,000;  -73,000;    0,000
359,918;  550,000;  562,000;    0,000
359,930; -110,000; -110,000;    0,000
359,943;   65,000;  -22,000;    0,000
359,955; -286,000; -287,000;    0,000
359,968;   -4,000;    5,000;    0,000
359,980; -244,000; -297,000;    0,000
359,992;   92,000;  165,000;    0,000
360,005; -196,000; -333,000;    0,000
360,017;  -78,000;   -6,000;    0,000
360,029;  -71,000;  -95,000;    0,000
360,042;   29,000;   63,000;    0,000
360,054; -163,000;  -97,000;    0,000
360,066;  417,000;  343,000;    0,000
360,079; -194,000; -235,000;    0,000
360,091;  100,000;  190,000;    0,000
360,103;  196,000;  290,000;    0,000
360,116;  276,000;  345,000;    0,000
360,128;  -12,000;    4,000;    0,000
360,141;   24,000;    4,000;    0,000
360,153;  -73,000; -145,000;    0,000
360,165; -181,000; -177,000;    0,000
360,177; -257,000; -157,000;    0,000
360,190;  169,000;   36,000;    0,000
360,202;  -33,000;  -28,000;    0,000
360,214;   19,000;  -47,000;    0,000
360,227; -217,000; -202,000;    0,000
360,239;  265,000;  345,000;    0,000
360,251; -162,000; -188,000;    0,000
360,264;  453,000;  412,000;    0,000
360,276;   -5,000;  -75,000;    0,000
360,288;  -15,000;  -43,000;    0,000
360,301; -166,000; -173,000;    0,000
360,313; -126,000; -216,000;    0,000
360,325;  -84,000;   12,000;    0,000
360,337;  127,000;  154,000;    0,000
360,350;   -8,000;    1,000;    0,000
360,362;  134,000;  173,000;    0,000
360,374;  -74,000; -158,000;    0,000
360,387;  181,000;  184,000;    0,000
360,399; -113,000; -161,000;    0,000
360,411;  131,000;  184,000;    0,000
360,423;   64,000;   77,000;    0,000
360,436;  164,000;  137,000;    0,000
360,448;   48,000;   90,000;    0,000
360,460;  117,000;  223,000;    0,000
360,472; -461,000; -436,000;    0,000
360,485; -125,000; -126,000;    0,000
360,497; -143,000;  -85,000;    0,000
360,509; -163,000;  -69,000;    0,000
360,521; -290,000; -330,000;    0,000
360,534;  141,000;  112,000;    0,000
360,546;    1,000;  -29,000;    0,000
360,558;   76,000;  195,000;    0,000
360,570; -244,000; -190,000;    0,000
360,582;  274,000;  357,000;    0,000
360,595; -146,000; -118,000;    0,000
360,607;  538,000;  585,000;    0,000
360,619; -195,000; -188,000;    0,000
360,631;  229,000;  219,000;    0,000
360,644;   34,000;   53,000;    0,000
360,656;  330,000;  365,000;    0,000
360,668; -202,000;  -99,000;    0,000
360,680;  206,000;  200,000;    0,000
360,692;  286,000;  220,000;    0,000
360,705;   32,000;   46,000;    0,000
360,717; -216,000; -165,000;    0,000
360,729;  110,000;  166,000;    0,000
360,741;  236,000;  262,000;    0,000
360,753;  256,000;  282,000;    0,000
360,766; -121,000;  -89,000;    0,000
360,778;  161,000;  169,000;    0,000
360,790; -314,000; -219,000;    0,000
360,802;  503,000;  455,000;    0,000
360,814;  151,000;  135,000;    0,000
360,826; 1029,000; 1111,000;    0,000
360,839;   10,000;   -1,000;    0,000
360,851;   68,000;  114,000;    0,000
360,863; -207,000;  -90,000;    0,000
360,875;  129,000;  249,000;    0,000
360,887;  -88,000;  -42,000;    0,000
360,899;  400,000;  287,000;    0,000
360,912; -173,000; -149,000;    0,000
360,924;  128,000;  235,000;    0,000
360,936;  100,000;   73,000;    0,000
360,948;    3,000;    5,000;    0,000
360,960;   19,000;  -90,000;    0,000
360,972;  333,000;  315,000;    0,000
360,984; -495,000; -642,000;    0,000
360,997;  531,000;  552,000;    0,000
361,009; -273,000; -331,000;    0,000
361,021;  131,000;   77,000;    0,000
361,033;   98,000;  -16,000;    0,000
361,045;   66,000;   25,000;    0,000
361,057;  241,000;  210,000;    0,000
361,069;  431,000;  512,000;    0,000
361,081; -371,000; -363,000;    0,000
361,093;  480,000;  334,000;    0,000
361,106;  190,000;   99,000;    0,000
361,118;   36,000;   41,000;    0,000
361,130;   75,000;   18,000;    0,000
361,142;  280,000;  190,000;    0,000
361,154; -253,000; -243,000;    0,000
361,166;  178,000;  171,000;    0,000
361,178; -239,000; -295,000;    0,000
361,190; -189,000;  -93,000;    0,000
361,202;    3,000;  -55,000;    0,000
361,214; -229,000; -190,000;    0,000
361,226; -420,000; -342,000;    0,000
361,239;   98,000;  186,000;    0,000
361,251;  117,000;   56,000;    0,000
361,263;  119,000;  116,000;    0,000
361,275;  -95,000;  -19,000;    0,000
361,287;   85,000;   37,000;    0,000
361,299;  -62,000;  -79,000;    0,000
361,311;  -86,000; -144,000;    0,000
361,323;  -63,000;  -84,000;    0,000
361,335;  214,000;  266,000;    0,000
361,347; -240,000; -265,000;    0,000
361,359;  -54,000;  -46,000;    0,000
361,371;  -42,000;  -30,000;    0,000
361,383;  -94,000; -112,000;    0,000
361,395;  212,000;  201,000;    0,000
361,407;  -55,000;   33,000;    0,000
361,419; -104,000;  -77,000;    0,000
361,431;  370,000;  335,000;    0,000
361,443;   46,000;   46,000;    0,000
361,455;    7,000;   50,000;    0,000
361,467; -302,000; -367,000;    0,000
361,479;  165,000;  199,000;    0,000
361,491; -228,000; -202,000;    0,000
361,503;  210,000;  271,000;    0,000
361,515;   61,000;   43,000;    0,000
361,527;   20,000;  -56,000;    0,000
361,539; -140,000;  -58,000;    0,000
361,551;  135,000;   83,000;    0,000
361,563; -118,000; -204,000;    0,000
361,575;    8,000;  -63,000;    0,000
361,587;   55,000;  202,000;    0,000
361,599;  215,000;  187,000;    0,000
361,611;   85,000;   54,000;    0,000
361,623;   76,000;   68,000;    0,000
361,635;   91,000;   65,000;    0,000
361,647;  257,000;  203,000;    0,000
361,659;   49,000;  102,000;    0,000
361,671;   24,000;   17,000;    0,000
361,683; -167,000;  -98,000;    0,000
361,695;  181,000;  134,000;    0,000
361,707;  -84,000;  -76,000;    0,000
361,719;  168,000;   29,000;    0,000
361,731;  -81,000;  -95,000;    0,000
361,743;  304,000;  347,000;    0,000
361,755; -156,000;  -51,000;    0,000
361,767;  -53,000;  -26,000;    0,000
361,779; -209,000; -193,000;    0,000
361,791; -249,000; -204,000;    0,000
361,803;  -71,000;   42,000;    0,000
361,815;  353,000;  268,000;    0,000
361,827;  257,000;  205,000;    0,000
361,839;  -69,000; -107,000;    0,000
361,850;  179,000;  106,000;    0,000
361,862;  354,000;  321,000;    0,000
361,874; -298,000; -256,000;    0,000
361,886; -120,000;  -72,000;    0,000
361,898; -265,000; -351,000;    0,000
361,910;  167,000;  111,000;    0,000
361,922;  150,000;  123,000;    0,000
361,934;  400,000;  444,000;    0,000
361,946; -397,000; -398,000;    0,000
361,958;  279,000;  378,000;    0,000
361,970; -193,000; -282,000;    0,000
361,981;  214,000;  281,000;    0,000
361,993; -231,000; -142,000;    0,000
362,005;  -97,000; -115,000;    0,000
362,017;  131,000;   63,000;    0,000
362,029; -113,000; -177,000;    0,000
362,041; -384,000; -325,000;    0,000
362,053; -100,000; -243,000;    0,000
362,065; -219,000;  -95,000;    0,000
362,077;   53,000;  -57,000;    0,000
362,088;   85,000;   16,000;    0,000
362,100;  -71,000;  -31,000;    0,000
362,112; -283,000; -185,000;    0,000
362,124;  -96,000;  -68,000;    0,000
362,136;   42,000;   18,000;    0,000
362,148; -116,000; -160,000;    0,000
362,160;  390,000;  231,000;    0,000
362,171;  446,000;  453,000;    0,000
362,183;  -27,000;  -94,000;    0,000
362,195; -196,000;  -55,000;    0,000
362,207; -169,000; -110,000;    0,000
362,219;  -42,000;   69,000;    0,000
362,231;  -28,000;   -5,000;    0,000
362,242;  -50,000;   29,000;    0,000
362,254; -271,000; -243,000;    0,000
362,266;  331,000;  353,000;    0,000
362,278;  178,000;  237,000;    0,000
362,290;   93,000;   83,000;    0,000
362,302; -180,000; -307,000;    0,000
362,313; -140,000;  -86,000;    0,000
362,325;  -43,000;   57,000;    0,000
362,337;  -10,000;   44,000;    0,000
362,349; -178,000; -154,000;    0,000
362,361;   31,000;  -40,000;    0,000
362,372;  -25,000;   15,000;    0,000
362,384;  226,000;  370,000;    0,000
362,396;  -24,000;  -20,000;    0,000
362,408;   90,000;  151,000;    0,000
362,420; -323,000; -350,000;    0,000
362,431;   35,000;  -27,000;    0,000
362,443;   22,000;   59,000;    0,000
362,455; -239,000;  -78,000;    0,000
362,467;  186,000;  200,000;    0,000
362,478;   40,000;   -7,000;    0,000
362,490; -349,000; -395,000;    0,000
362,502;  -30,000;  -31,000;    0,000
362,514;  -24,000;   11,000;    0,000
362,525; -412,000; -370,000;    0,000
362,537; -217,000; -201,000;    0,000
362,549;  407,000;  298,000;    0,000
362,561; -240,000; -209,000;    0,000
362,573;  417,000;  327,000;    0,000
362,584;   87,000;  -47,000;    0,000
362,596;  277,000;  289,000;    0,000
362,608;  -99,000;  -19,000;    0,000
362,619;    5,000;  137,000;    0,000
362,631; -226,000; -250,000;    0,000
362,643;  199,000;  282,000;    0,000
362,655; -224,000; -207,000;    0,000
362,666;   14,000;    8,000;    0,000
362,678;   40,000;   25,000;    0,000
362,690;  212,000;  167,000;    0,000
362,702;  -33,000;  -93,000;    0,000
362,713; -329,000; -238,000;    0,000
362,725;    6,000;   -2,000;    0,000
362,737; -147,000;  -70,000;    0,000
362,748;  177,000;   62,000;    0,000
362,760;   83,000;   39,000;    0,000
362,772;    7,000;   41,000;    0,000
362,784;   60,000;   55,000;    0,000
362,795; -150,000; -207,000;    0,000
362,807;  -80,000;  -23,000;    0,000
362,819;   19,000;  116,000;    0,000
362,830;   89,000;  200,000;    0,000
362,842;  127,000;   62,000;    0,000
362,854;  -14,000;  174,000;    0,000
362,865;  -33,000; -195,000;    0,000
362,877;  225,000;  172,000;    0,000
362,889;  -84,000;  -52,000;    0,000
362,900;  -59,000;  -41,000;    0,000
362,912; -270,000; -289,000;    0,000
362,924;  451,000;  404,000;    0,000
362,935;   68,000;  142,000;    0,000
362,947;   51,000;  -18,000;    0,000
362,959; -122,000;  -82,000;    0,000
362,970;  316,000;  363,000;    0,000
362,982; -107,000;  -70,000;    0,000
362,994;   65,000;   49,000;    0,000
363,005;   25,000;   97,000;    0,000
363,017;   70,000;   15,000;    0,000
363,029;  -59,000;  -74,000;    0,000
363,040;  130,000;   43,000;    0,000
363,052; -242,000; -203,000;    0,000
363,063;  -20,000;   -4,000;    0,000
363,075;  -88,000;  -96,000;    0,000
363,087;  -64,000;   85,000;    0,000
363,098; -192,000; -204,000;    0,000
363,110;  258,000;  368,000;    0,000
363,122; -363,000; -324,000;    0,000
363,133;   45,000;   64,000;    0,000
363,145; -139,000; -125,000;    0,000
363,156;   81,000;  114,000;    0,000
363,168;  -16,000;  -58,000;    0,000
363,180; -160,000;  -90,000;    0,000
363,191; -202,000; -154,000;    0,000
363,203;  290,000;  257,000;    0,000
363,214;   62,000;   43,000;    0,000
363,226;  -33,000;   -5,000;    0,000
363,237; -171,000; -135,000;    0,000
363,249;   28,000;   17,000;    0,000
363,261;  -54,000;  -99,000;    0,000
363,272;  660,000;  695,000;    0,000
363,284;   59,000;   44,000;    0,000
363,295;  108,000;   90,000;    0,000
363,307; -145,000; -267,000;    0,000
363,319;  278,000;  268,000;    0,000
363,330;  -11,000;   68,000;    0,000
363,342;  165,000;  120,000;    0,000
363,353;  -57,000;  -15,000;    0,000
363,365; -103,000;  -62,000;    0,000
363,376;   66,000;  126,000;    0,000
363,388;  450,000;  494,000;    0,000
363,399;   36,000;  114,000;    0,000
363,411;  -97,000; -140,000;    0,000
363,422;  -90,000;  -37,000;    0,000
363,434;  162,000;   97,000;    0,000
363,446;   52,000;   33,000;    0,000
363,457;  133,000;  157,000;    0,000
363,469;  -43,000;   20,000;    0,000
363,480; -198,000; -181,000;    0,000
363,492; -132,000;  -65,000;    0,000
363,503;  -63,000; -142,000;    0,000
363,515; -134,000; -187,000;    0,000
363,526;  226,000;  258,000;    0,000
363,538;  -36,000;   -6,000;    0,000
363,549;  433,000;  387,000;    0,000
363,561; -256,000; -263,000;    0,000
363,572;  438,000;  338,000;    0,000
363,584; -154,000; -197,000;    0,000
363,595;  105,000;  149,000;    0,000
363,607;   90,000;  -20,000;    0,000
363,618;  315,000;  332,000;    0,000
363,630; -376,000; -305,000;    0,000
363,641;   34,000;   67,000;    0,000
363,653; -122,000;  -91,000;    0,000
363,664;  294,000;  280,000;    0,000
363,676;   87,000;  160,000;    0,000
363,687;   37,000;  133,000;    0,000
363,699; -140,000; -104,000;    0,000
363,710;   24,000;  -10,000;    0,000
363,721; -392,000; -450,000;    0,000
363,733;  -47,000;  -78,000;    0,000
363,744;  -94,000; -127,000;    0,000
363,756; -193,000; -116,000;    0,000
363,767; -125,000; -103,000;    0,000
363,779;    9,000;   41,000;    0,000
363,790;   70,000;  -23,000;    0,000
363,802;   52,000;  146,000;    0,000
363,813; -139,000; -118,000;    0,000
363,824;  189,000;  178,000;    0,000
363,836; -268,000; -317,000;    0,000
363,847;  802,000;  868,000;    0,000
363,859;  -25,000;  -45,000;    0,000
363,870; -178,000;  -61,000;    0,000
363,882; -242,000; -155,000;    0,000
363,893;  -41,000;   81,000;    0,000
363,904;  102,000;  -12,000;    0,000
363,916; -259,000; -101,000;    0,000
363,927;  -98,000;  -92,000;    0,000
363,939;  -48,000;   60,000;    0,000
363,950; -291,000; -211,000;    0,000
363,962;   60,000;  188,000;    0,000
363,973;  -86,000;   -4,000;    0,000
363,984;  110,000;   52,000;    0,000
363,996;  -11,000;  -46,000;    0,000
364,007; -108,000;  -76,000;    0,000
364,018; -231,000; -238,000;    0,000
364,030;  -56,000;   28,000;    0,000
364,041; -178,000; -196,000;    0,000
364,053;  272,000;  255,000;    0,000
364,064; -257,000; -176,000;    0,000
364,075;   24,000;   99,000;    0,000
364,087;   -1,000;   84,000;    0,000
364,098;    0,000;  -44,000;    0,000
364,109; -175,000; -224,000;    0,000
364,121;  273,000;  288,000;    0,000
364,132; -173,000;  -36,000;    0,000
364,144;  -65,000;  -74,000;    0,000
364,155;  447,000;  260,000;    0,000
364,166;  204,000;  154,000;    0,000
364,178; -238,000; -294,000;    0,000
364,189;   45,000;  210,000;    0,000
364,200;   15,000;   89,000;    0,000
364,212;  173,000;  110,000;    0,000
364,223;  -55,000;  -15,000;    0,000
364,234;  328,000;  361,000;    0,000
364,246; -174,000;  -21,000;    0,000
364,257; -203,000; -198,000;    0,000
364,268;  -72,000;   31,000;    0,000
364,280;  154,000;  212,000;    0,000
364,291; -295,000; -315,000;    0,000
364,302;  -14,000; -113,000;    0,000
364,314;    0,000;  -75,000;    0,000
364,325; -159,000; -147,000;    0,000
364,336;  400,000;  264,000;    0,000
364,347;  132,000;  182,000;    0,000
364,359;  -90,000;    8,000;    0,000
364,370;   45,000;  -14,000;    0,000
364,381; -124,000;  -43,000;    0,000
364,393;  369,000;  480,000;    0,000
364,404;  241,000;  177,000;    0,000
364,415;  152,000;  176,000;    0,000
364,426; -278,000; -183,000;    0,000
364,438;  -11,000;  -32,000;    0,000
364,449;  100,000;  182,000;    0,000
364,460;  160,000;  190,000;    0,000
364,472;  -93,000;  -58,000;    0,000
364,483;  232,000;  220,000;    0,000
364,494; -148,000;  -56,000;    0,000
364,505;   -1,000;    7,000;    0,000
364,517; -125,000; -127,000;    0,000
364,528;  331,000;  243,000;    0,000
364,539;   51,000;   42,000;    0,000
364,550;   45,000;  120,000;    0,000
364,562; -159,000; -124,000;    0,000
364,573; -157,000; -112,000;    0,000
364,584;  -79,000;  -64,000;    0,000
364,595; -121,000;   39,000;    0,000
364,607; -176,000;  -66,000;    0,000
364,618; -290,000; -296,000;    0,000
364,629; -325,000; -194,000;    0,000
364,640;  120,000;  194,000;    0,000
364,652;   91,000;  114,000;    0,000
364,663;  107,000;  217,000;    0,000
364,674;  -64,000;   84,000;    0,000
364,685;  -33,000;   -7,000;    0,000
364,696; -129,000; -141,000;    0,000
364,708; -131,000;   -9,000;    0,000
364,719;  -55,000;    7,000;    0,000
364,730;  327,000;  276,000;    0,000
364,741;  151,000;  103,000;    0,000
364,752;  151,000;  199,000;    0,000
364,764;  -84,000;  -80,000;    0,000
364,775;   40,000;   57,000;    0,000
364,786; -185,000; -166,000;    0,000
364,797; -167,000;  -75,000;    0,000
364,808; -119,000; -112,000;    0,000
364,820;  123,000;  152,000;    0,000
364,831; -481,000; -411,000;    0,000
364,842;  185,000;  149,000;    0,000
364,853; -300,000; -277,000;    0,000
364,864; -136,000; -158,000;    0,000
364,875; -305,000; -266,000;    0,000
364,887; -257,000; -122,000;    0,000
364,898;   -2,000;   19,000;    0,000
364,909;  -77,000;  137,000;    0,000
364,920; -193,000; -141,000;    0,000
364,931; -181,000; -167,000;    0,000
364,942; -113,000; -107,000;    0,000
364,953; -430,000; -359,000;    0,000
364,965;   73,000;  137,000;    0,000
364,976;  247,000;  127,000;    0,000
364,987;  -63,000;  115,000;    0,000
364,998;    9,000;   88,000;    0,000
365,009; -140,000; -159,000;    0,000
365,020;  124,000;   70,000;    0,000
365,031; -117,000; -158,000;    0,000
365,042;  162,000;  143,000;    0,000
365,054;  -98,000;  -30,000;    0,000
365,065;  167,000;  128,000;    0,000
365,076; -187,000; -149,000;    0,000
365,087;   87,000;   91,000;    0,000
365,098; -292,000; -290,000;    0,000
365,109;  216,000;  179,000;    0,000
365,120; -111,000; -108,000;    0,000
365,131;  376,000;  333,000;    0,000
365,142;   37,000;    0,000;    0,000
365,154;   83,000;   37,000;    0,000
365,165; -101,000; -148,000;    0,000
365,176;  286,000;  450,000;    0,000
365,187; -113,000; -153,000;    0,000
365,198;  -50,000;  -26,000;    0,000
365,209;  133,000;  127,000;    0,000
365,220;  -85,000;  -58,000;    0,000
365,231; -248,000; -247,000;    0,000
365,242;   51,000;  113,000;    0,000
365,253; -368,000; -283,000;    0,000
365,264;   54,000;   97,000;    0,000
365,275;   -7,000;   15,000;    0,000
365,286;    5,000;   82,000;    0,000
365,297; -207,000; -223,000;    0,000
365,309;  -57,000;  -72,000;    0,000
365,320; -124,000;  -97,000;    0,000
365,331;   78,000;   91,000;    0,000
365,342;  -64,000;  -81,000;    0,000
365,353;  118,000;  184,000;    0,000
365,364; -415,000; -428,000;    0,000
365,375;   47,000;  125,000;    0,000
365,386; -314,000; -268,000;    0,000
365,397;  -19,000;   15,000;    0,000
365,408;   16,000;  210,000;    0,000
365,419;   32,000;   20,000;    0,000
365,430; -133,000; -131,000;    0,000
365,441;  154,000;  208,000;    0,000
365,452; -436,000; -316,000;    0,000
365,463; -385,000; -355,000;    0,000
365,474;    5,000;  -14,000;    0,000
365,485;  141,000;  206,000;    0,000
365,496;   12,000;  130,000;    0,000
365,507;  169,000;  136,000;    0,000
365,518; -115,000;  -83,000;    0,000
365,529;   34,000;   19,000;    0,000
365,540;  -96,000;  -61,000;    0,000
365,551;  -71,000;   43,000;    0,000
365,562; -102,000; -112,000;    0,000
365,573;  -56,000;  -78,000;    0,000
365,584; -200,000; -218,000;    0,000
365,595;  457,000;  659,000;    0,000
365,606; -232,000; -276,000;    0,000
365,617;  -48,000;   22,000;    0,000
365,628; -313,000; -259,000;    0,000
365,639;  107,000;  141,000;    0,000
365,650;  -36,000;  100,000;    0,000
365,661;  -47,000;   18,000;    0,000
365,672; -227,000; -291,000;    0,000
365,682;  -95,000; -180,000;    0,000
365,693; -245,000; -299,000;    0,000
365,704; -345,000; -404,000;    0,000
365,715; -120,000; -125,000;    0,000
365,726;   46,000;   64,000;    0,000
365,737; -328,000; -420,000;    0,000
365,748;  123,000;  160,000;    0,000
365,759; -177,000; -306,000;    0,000
365,770;  -47,000;  -21,000;    0,000
365,781; -126,000; -178,000;    0,000
365,792;   47,000;   54,000;    0,000
365,803;  127,000;  172,000;    0,000
365,814; -157,000; -203,000;    0,000
365,825;   46,000;  130,000;    0,000
365,836;  276,000;  313,000;    0,000
365,846; -285,000; -265,000;    0,000
365,857;  263,000;  286,000;    0,000
365,868;  241,000;  305,000;    0,000
365,879;  228,000;  363,000;    0,000
365,890;  107,000;   87,000;    0,000
365,901;  409,000;  407,000;    0,000
365,912;  -91,000;  -45,000;    0,000
365,923;  138,000;  206,000;    0,000
365,934;  113,000;  246,000;    0,000
365,944;  321,000;  249,000;    0,000
365,955;  146,000;  154,000;    0,000
365,966;   54,000;   69,000;    0,000
365,977; -384,000; -443,000;    0,000
365,988; -164,000; -129,000;    0,000
365,999;  222,000;  211,000;    0,000
366,010;   34,000;  201,000;    0,000
366,021; -346,000; -205,000;    0,000
366,031;   11,000;   94,000;    0,000
366,042; -303,000; -336,000;    0,000
366,053; -226,000; -191,000;    0,000
366,064; -126,000;  -43,000;    0,000
366,075;  208,000;  171,000;    0,000
366,086;   59,000;  -31,000;    0,000
366,096;   46,000;   90,000;    0,000
366,107; -114,000; -153,000;    0,000
366,118;  -76,000;   36,000;    0,000
366,129;  -57,000; -172,000;    0,000
366,140;  123,000;   66,000;    0,000
366,151; -242,000; -133,000;    0,000
366,161;   82,000;  193,000;    0,000
366,172; -237,000; -170,000;    0,000
366,183;  179,000;   30,000;    0,000
366,194;  307,000;  261,000;    0,000
366,205;  -56,000;  -35,000;    0,000
366,215; -230,000; -173,000;    0,000
366,226;  109,000;  131,000;    0,000
366,237;  207,000;  157,000;    0,000
366,248;  -95,000; -108,000;    0,000
366,259;  257,000;  247,000;    0,000
366,269;  142,000;  153,000;    0,000
366,280; -120,000;  -94,000;    0,000
366,291; -233,000; -210,000;    0,000
366,302;   86,000;   66,000;    0,000
366,313;  -82,000;   25,000;    0,000
366,323;  -34,000; -105,000;    0,000
366,334; -177,000; -177,000;    0,000
366,345; -195,000; -213,000;    0,000
366,356;  -88,000; -227,000;    0,000
366,366; -178,000; -157,000;    0,000
366,377;  306,000;  337,000;    0,000
366,388; -119,000; -118,000;    0,000
366,399;   90,000;  159,000;    0,000
366,409; -205,000; -111,000;    0,000
366,420;  110,000;  129,000;    0,000
366,431;  442,000;  367,000;    0,000
366,442;   76,000;  121,000;    0,000
366,452; -194,000; -268,000;    0,000
366,463;  149,000;  234,000;    0,000
366,474;    8,000; -161,000;    0,000
366,485; -276,000; -225,000;    0,000
366,495;    3,000;  -41,000;    0,000
366,506;  434,000;  424,000;    0,000
366,517; -142,000; -145,000;    0,000
366,528;  129,000;  137,000;    0,000
366,538;  -97,000;  -52,000;    0,000
366,549; -235,000; -215,000;    0,000
366,560; -314,000; -280,000;    0,000
366,570;  406,000;  355,000;    0,000
366,581;  -12,000;  -19,000;    0,000
366,592;  149,000;  170,000;    0,000
366,603;  250,000;  107,000;    0,000
366,613;    4,000;   90,000;    0,000
366,624; -286,000; -248,000;    0,000
366,635;  111,000;  100,000;    0,000
366,645; -194,000;  -65,000;    0,000
366,656;    4,000;  -83,000;    0,000
366,667;  -85,000; -149,000;    0,000
366,677;   84,000;  124,000;    0,000
366,688;   31,000;   70,000;    0,000
366,699;  212,000;  329,000;    0,000
366,709; -197,000; -163,000;    0,000
366,720; -103,000;  -35,000;    0,000
366,731;  117,000;  212,000;    0,000
366,741;   89,000;  139,000;    0,000
366,752; -131,000;  -89,000;    0,000
366,763;  125,000;  230,000;    0,000
366,773;  -98,000;  -55,000;    0,000
366,784;  -52,000; -102,000;    0,000
366,795;  -32,000; -146,000;    0,000
366,805; -186,000;  -71,000;    0,000
366,816;  426,000;  475,000;    0,000
366,827;  112,000;   76,000;    0,000
366,837;   79,000;  103,000;    0,000
366,848;   47,000;   -9,000;    0,000
366,858;   20,000;  -65,000;    0,000
366,869;   34,000;  171,000;    0,000
366,880; -171,000; -188,000;    0,000
366,890;  157,000;  171,000;    0,000
366,901;  -77,000; -166,000;    0,000
366,912;  317,000;  243,000;    0,000
366,922;  108,000;  232,000;    0,000
366,933;  384,000;  350,000;    0,000
366,943; -288,000; -292,000;    0,000
366,954;   73,000;  109,000;    0,000
366,965;   58,000;  -34,000;    0,000
366,975;   85,000;   82,000;    0,000
366,986; -229,000; -111,000;    0,000
366,996;  267,000;  268,000;    0,000
367,007; -152,000; -131,000;    0,000
367,018;   90,000;  205,000;    0,000
367,028; -270,000; -247,000;    0,000
367,039;   27,000;   64,000;    0,000
367,049; -111,000;  -52,000;    0,000
367,060;  -13,000;   52,000;    0,000
367,070;  -66,000;  -11,000;    0,000
367,081;  258,000;  264,000;    0,000
367,092;  -45,000;  -62,000;    0,000
367,102; -134,000;  -20,000;    0,000
367,113; -439,000; -332,000;    0,000
367,123;  -86,000;  -48,000;    0,000
367,134;   70,000;   98,000;    0,000
367,144;  159,000;  185,000;    0,000
367,155;  -22,000;  108,000;    0,000
367,165;  184,000;  110,000;    0,000
367,176; -142,000; -148,000;    0,000
367,186;  -94,000;  -61,000;    0,000
367,197;   -7,000;  129,000;    0,000
367,208;  106,000;   92,000;    0,000
367,218;  -79,000;  -41,000;    0,000
367,229;   14,000;  -72,000;    0,000
367,239;   14,000;   10,000;    0,000
367,250;   22,000;   28,000;    0,000
367,260;  130,000;   64,000;    0,000
367,271;  -72,000; -143,000;    0,000
367,281; -140,000; -138,000;    0,000
367,292;  -86,000; -107,000;    0,000
367,302; -142,000;  -60,000;    0,000
367,313;  252,000;  266,000;    0,000
367,323; -113,000; -141,000;    0,000
367,334;  251,000;  201,000;    0,000
367,344; -284,000; -299,000;    0,000
367,355; -170,000; -160,000;    0,000
367,365;   11,000;   11,000;    0,000
367,376;  133,000;  111,000;    0,000
367,386;  103,000;   49,000;    0,000
367,397;  -23,000;  122,000;    0,000
367,407; -418,000; -350,000;    0,000
367,418; -149,000;  -55,000;    0,000
367,428; -110,000; -118,000;    0,000
367,438;  243,000;  218,000;    0,000
367,449;  -72,000;   51,000;    0,000
367,459;  308,000;  213,000;    0,000
367,470; -181,000; -153,000;    0,000
367,480;  188,000;  135,000;    0,000
367,491;  271,000;  257,000;    0,000
367,501;  365,000;  349,000;    0,000
367,512; -203,000; -145,000;    0,000
367,522;  227,000;  139,000;    0,000
367,533;  -59,000; -130,000;    0,000
367,543;  375,000;  430,000;    0,000
367,553; -282,000; -367,000;    0,000
367,564;  -42,000; -117,000;    0,000
367,574; -109,000;   -2,000;    0,000
367,585;  142,000;   95,000;    0,000
367,595; -133,000; -211,000;    0,000
367,605;   18,000;   38,000;    0,000
367,616;   10,000;    4,000;    0,000
367,626;  401,000;  457,000;    0,000
367,637;  -96,000;  -66,000;    0,000
367,647;   75,000;  180,000;    0,000
367,658;  132,000;   57,000;    0,000
367,668;  182,000;  154,000;    0,000
367,678;  -20,000;   65,000;    0,000
367,689;  129,000;   85,000;    0,000
367,699;  227,000;  256,000;    0,000
367,710;  223,000;  256,000;    0,000
367,720;   16,000;  135,000;    0,000
367,730; -167,000; -218,000;    0,000
367,741; -134,000;  -21,000;    0,000
367,751;  103,000;  278,000;    0,000
367,761;  143,000;  300,000;    0,000
367,772;  105,000;   85,000;    0,000
367,782;   38,000;   57,000;    0,000
367,793; -220,000; -121,000;    0,000
367,803;  159,000;   89,000;    0,000
367,813;  -89,000;   30,000;    0,000
367,824; -234,000; -295,000;    0,000
367,834;  398,000;  418,000;    0,000
367,844;  139,000;  204,000;    0,000
367,855; -135,000;  -44,000;    0,000
367,865; -123,000; -163,000;    0,000
367,875; -154,000; -118,000;    0,000
367,886;  -10,000; -129,000;    0,000
367,896;  -35,000;  150,000;    0,000
367,906; -392,000; -388,000;    0,000
367,917;  110,000;   56,000;    0,000
367,927; -226,000; -293,000;    0,000
367,937;  116,000;   97,000;    0,000
367,948; -134,000; -179,000;    0,000
367,958;   61,000;  100,000;    0,000
367,968;  158,000;   42,000;    0,000
367,979;  280,000;  305,000;    0,000
367,989;    9,000;   27,000;    0,000
367,999;  -96,000; -134,000;    0,000
368,009; -198,000; -282,000;    0,000
368,020; 1092,000; 1005,000;    0,000
368,030;  213,000;  275,000;    0,000
368,040;  -78,000;  -57,000;    0,000
368,051;  -35,000;   -7,000;    0,000
368,061;   14,000;   87,000;    0,000
368,071;  279,000;  207,000;    0,000
368,082; -244,000; -199,000;    0,000
368,092;  -96,000;  -22,000;    0,000
368,102;  262,000;  252,000;    0,000
368,112; -136,000;  -62,000;    0,000
368,123;   63,000;  115,000;    0,000
368,133; -119,000;  -65,000;    0,000
368,143; -177,000; -101,000;    0,000
368,153; -124,000; -120,000;    0,000
368,164;  -53,000;  -53,000;    0,000
368,174;  135,000;   36,000;    0,000
368,184;  164,000;  139,000;    0,000
368,194;  -27,000;  -52,000;    0,000
368,205;  237,000;  184,000;    0,000
368,215;  179,000;  226,000;    0,000
368,225;  -91,000;  -70,000;    0,000
368,235;   97,000;   96,000;    0,000
368,246;  -42,000;  -42,000;    0,000
368,256; -138,000; -132,000;    0,000
368,266;   15,000;  -29,000;    0,000
368,276;  -66,000; -105,000;    0,000
368,286;  100,000;   80,000;    0,000
368,297; -290,000; -317,000;    0,000
368,307;  266,000;  184,000;    0,000
368,317; -363,000; -406,000;    0,000
368,327;  -62,000;   -5,000;    0,000
368,338;   51,000;   72,000;    0,000
368,348;  180,000;  183,000;    0,000
368,358;   28,000;   -6,000;    0,000
368,368; -212,000; -317,000;    0,000
368,378;  -84,000;  -96,000;    0,000
368,389;  289,000;  256,000;    0,000
368,399;   87,000;  120,000;    0,000
368,409;  195,000;  153,000;    0,000
368,419;   13,000;   64,000;    0,000
368,429;  125,000;  166,000;    0,000
368,439; -164,000;  -46,000;    0,000
368,450;  279,000;  240,000;    0,000
368,460;  195,000;  149,000;    0,000
368,470;   -6,000;   66,000;    0,000
368,480; -136,000; -173,000;    0,000
368,490; -279,000; -223,000;    0,000
368,500;  -29,000;   92,000;    0,000
368,511;  245,000;  394,000;    0,000
368,521; -154,000; -221,000;    0,000
368,531;  223,000;  403,000;    0,000
368,541;  -74,000; -113,000;    0,000
368,551;   75,000;  -20,000;    0,000
368,561; -330,000; -235,000;    0,000
368,571;  574,000;  491,000;    0,000
368,582; -239,000; -294,000;    0,000
368,592; -128,000; -139,000;    0,000
368,602; -333,000; -320,000;    0,000
368,612;  262,000;  240,000;    0,000
368,622; -108,000;  -64,000;    0,000
368,632;   20,000;   -5,000;    0,000
368,642;   27,000;  133,000;    0,000
368,652;  -23,000;  -40,000;    0,000
368,663; -256,000; -228,000;    0,000
368,673;  333,000;  314,000;    0,000
368,683; -103,000;   58,000;    0,000
368,693;  -55,000;    2,000;    0,000
368,703;  -24,000;  -54,000;    0,000
368,713;   37,000;  -28,000;    0,000
368,723; -286,000; -229,000;    0,000
368,733; -110,000; -103,000;    0,000
368,743; -104,000;  -43,000;    0,000
368,753;  -13,000;  -87,000;    0,000
368,763; -148,000; -112,000;    0,000
368,774;  238,000;  291,000;    0,000
368,784; -118,000;  -75,000;    0,000
368,794;  251,000;  224,000;    0,000
368,804; -123,000;  -81,000;    0,000
368,814; -127,000; -184,000;    0,000
368,824;  -50,000;  -64,000;    0,000
368,834;  -40,000;   60,000;    0,000
368,844;  135,000;  174,000;    0,000
368,854;  132,000;  221,000;    0,000
368,864; -210,000; -228,000;    0,000
368,874; -198,000; -106,000;    0,000
368,884; -293,000; -304,000;    0,000
368,894;  -75,000; -125,000;    0,000
368,904; -233,000; -301,000;    0,000
368,914;  258,000;  208,000;    0,000
368,924;  -78,000;  -27,000;    0,000
368,934;  131,000;  180,000;    0,000
368,944;  -96,000; -108,000;    0,000
368,954;  161,000;  233,000;    0,000
368,964;  238,000;  216,000;    0,000
368,974; -318,000; -310,000;    0,000
368,984;  -63,000; -114,000;    0,000
368,995;  109,000;  218,000;    0,000
369,005; -286,000; -297,000;    0,000
369,014; -100,000; -142,000;    0,000
369,025; -228,000; -193,000;    0,000
369,035;  -28,000;   -3,000;    0,000
369,044;    2,000;   29,000;    0,000
369,055;  -78,000;  -73,000;    0,000
369,064; -367,000; -357,000;    0,000
369,074;  377,000;  387,000;    0,000
369,084; -151,000;  -79,000;    0,000
369,094; -222,000; -114,000;    0,000
369,104;  184,000;  154,000;    0,000
369,114;  272,000;  229,000;    0,000
369,124; -194,000; -140,000;    0,000
369,134;  -82,000;  -82,000;    0,000
369,144;  224,000;  153,000;    0,000
369,154;   23,000;  -25,000;    0,000
369,164;   93,000;   25,000;    0,000
369,174;   12,000;  124,000;    0,000
369,184;  186,000;  249,000;    0,000
369,194;  281,000;  296,000;    0,000
369,204; -125,000; -184,000;    0,000
369,214;  132,000;  200,000;    0,000
369,224;  -73,000;  -24,000;    0,000
369,234; -350,000; -234,000;    0,000
369,244;   38,000;   -8,000;    0,000
369,254; -155,000;  -62,000;    0,000
369,264;  -27,000;  -58,000;    0,000
369,274;    9,000;   44,000;    0,000
369,284; -170,000; -231,000;    0,000
369,293;   72,000;   94,000;    0,000
369,303;   60,000;  125,000;    0,000
369,313;  156,000;  261,000;    0,000
369,323;  106,000;  102,000;    0,000
369,333;  166,000;  216,000;    0,000
369,343; -293,000; -197,000;    0,000
369,353;   -7,000; -110,000;    0,000
369,363; -101,000;  -29,000;    0,000
369,373;   22,000;   13,000;    0,000
369,383;  124,000;  166,000;    0,000
369,392;  127,000;  189,000;    0,000
369,402; -238,000; -219,000;    0,000
369,412; -233,000; -199,000;    0,000
369,422;  -24,000;  -39,000;    0,000
369,432;  -51,000;   -3,000;    0,000
369,442;  -75,000;  -27,000;    0,000
369,452;   58,000;   24,000;    0,000
369,462; -155,000; -131,000;    0,000
369,471; -143,000; -148,000;    0,000
369,481; -348,000; -347,000;    0,000
369,491;  184,000;  194,000;    0,000
369,501; -208,000; -102,000;    0,000
369,511;  -94,000;  -90,000;    0,000
369,521; -142,000; -140,000;    0,000
369,531;  373,000;  164,000;    0,000
369,540;  237,000;   29,000;    0,000
369,550;    5,000;  -91,000;    0,000
369,560;  104,000;  137,000;    0,000
369,570;   32,000;  158,000;    0,000
369,580; -370,000; -310,000;    0,000
369,590;  202,000;  150,000;    0,000
369,599; -262,000; -223,000;    0,000
369,609;  -61,000;   34,000;    0,000
369,619; -205,000; -197,000;    0,000
369,629;  -64,000;  -95,000;    0,000
369,639;  -72,000;  -53,000;    0,000
369,649;  164,000;  184,000;    0,000
369,658; -391,000; -289,000;    0,000
369,668;  189,000;  269,000;    0,000
369,678; -281,000; -289,000;    0,000
369,688;  115,000;  113,000;    0,000
369,698; -355,000; -336,000;    0,000
369,707;  102,000;   59,000;    0,000
369,717;   70,000;   -9,000;    0,000
369,727;  -23,000;   59,000;    0,000
369,737;  269,000;  211,000;    0,000
369,747;   78,000;  120,000;    0,000
369,756;   68,000;  110,000;    0,000
369,766;   72,000;  143,000;    0,000
369,776;  142,000;  204,000;    0,000
369,786;  394,000;  319,000;    0,000
369,795;  -40,000; -136,000;    0,000
369,805;  -19,000;   55,000;    0,000
369,815; -251,000; -210,000;    0,000
369,825;  206,000;  186,000;    0,000
369,834;  -38,000;   28,000;    0,000
369,844;  333,000;  304,000;    0,000
369,854;  -64,000; -104,000;    0,000
369,864;  300,000;  371,000;    0,000
369,873;    6,000;  -11,000;    0,000
369,883;  206,000;  134,000;    0,000
369,893; -232,000; -106,000;    0,000
369,903; -175,000; -158,000;    0,000
369,912;   15,000;  106,000;    0,000
369,922;  398,000;  432,000;    0,000
369,932; -174,000;  -79,000;    0,000
369,942; -121,000;  -67,000;    0,000
369,951; -228,000; -153,000;    0,000
369,961;  -85,000;   -9,000;    0,000
369,971; -302,000; -318,000;    0,000
369,980;   -6,000;  -24,000;    0,000
369,990; -325,000; -267,000;    0,000
370,000;  133,000;   95,000;    0,000
370,009; -241,000; -104,000;    0,000
370,019;  -28,000;    1,000;    0,000
370,029; -296,000; -210,000;    0,000
370,039;   45,000;   72,000;    0,000
370,048;   32,000;   24,000;    0,000
370,058;  231,000;  244,000;    0,000
370,068;  -39,000;   23,000;    0,000
370,077; -103,000; -131,000;    0,000
370,087; -516,000; -432,000;    0,000
370,097;   13,000;   84,000;    0,000
370,106;   15,000;  118,000;    0,000
370,116;   64,000;   67,000;    0,000
370,126; -258,000; -347,000;    0,000
370,135;   61,000;   68,000;    0,000
370,145;  -24,000;  -54,000;    0,000
370,155;  391,000;  265,000;    0,000
370,164;  241,000;  170,000;    0,000
370,174;  138,000;  282,000;    0,000
370,184;  138,000;   84,000;    0,000
370,193;  -15,000;   91,000;    0,000
370,203; -377,000; -291,000;    0,000
370,212;  140,000;  111,000;    0,000
370,222; -206,000; -179,000;    0,000
370,232;  -20,000;  -36,000;    0,000
370,241;   62,000;   46,000;    0,000
370,251;  389,000;  294,000;    0,000
370,261; -313,000; -186,000;    0,000
370,270;    4,000;  -40,000;    0,000
370,280;  -69,000;  -62,000;    0,000
370,289;  106,000;   23,000;    0,000
370,299; -280,000; -255,000;    0,000
370,309;   47,000;   51,000;    0,000
370,318; -155,000; -240,000;    0,000
370,328;  175,000;  121,000;    0,000
370,337; -200,000; -252,000;    0,000
370,347;  273,000;  332,000;    0,000
370,357;  115,000;  110,000;    0,000
370,366;  174,000;  204,000;    0,000
370,376;  -53,000;  -89,000;    0,000
370,385;  -47,000;  -46,000;    0,000
370,395; -238,000; -202,000;    0,000
370,405; -125,000;  -17,000;    0,000
370,414; -174,000; -126,000;    0,000
370,424; -147,000;  -87,000;    0,000
370,433;   32,000;  -15,000;    0,000
370,443;   32,000;   45,000;    0,000
370,452; -187,000; -174,000;    0,000
370,462;  -20,000;  -53,000;    0,000
370,472; -260,000; -177,000;    0,000
370,481;  209,000;  268,000;    0,000
370,491;  -87,000; -131,000;    0,000
370,500;  190,000;  231,000;    0,000
370,510; -193,000; -228,000;    0,000
370,519;  135,000;  187,000;    0,000
370,529; -276,000; -232,000;    0,000
370,538;  396,000;  332,000;    0,000
370,548;  -84,000; -136,000;    0,000
370,557;   -9,000;  -50,000;    0,000
370,567;  -93,000; -116,000;    0,000
370,576;  165,000;  134,000;    0,000
370,586; -439,000; -490,000;    0,000
370,595;   73,000;  158,000;    0,000
370,605; -405,000; -357,000;    0,000
370,615;   87,000;  128,000;    0,000
370,624;  -16,000;   33,000;    0,000
370,634;    4,000;   97,000;    0,000
370,643; -172,000;  -99,000;    0,000
370,653;  113,000;  137,000;    0,000
370,662;  -81,000; -204,000;    0,000
370,672;  223,000;  182,000;    0,000
370,681;  223,000;  205,000;    0,000
370,690;  -69,000;  -52,000;    0,000
370,700; -266,000; -287,000;    0,000
370,709;  257,000;  260,000;    0,000
370,719;  -83,000; -107,000;    0,000
370,728;  133,000;  206,000;    0,000
370,738;   49,000;   60,000;    0,000
370,747;   12,000;   66,000;    0,000
370,757; -112,000; -256,000;    0,000
370,766; -184,000; -184,000;    0,000
370,776; -356,000; -371,000;    0,000
370,785;  138,000;   72,000;    0,000
370,795;  -27,000;   17,000;    0,000
370,804;   69,000;  -40,000;    0,000
370,814; -155,000;  -76,000;    0,000
370,823;  265,000;  256,000;    0,000
370,832;  -98,000;  -98,000;    0,000
370,842; -160,000; -182,000;    0,000
370,851; -244,000; -300,000;    0,000
370,861; -194,000; -176,000;    0,000
370,870; -200,000; -266,000;    0,000
370,880;    8,000;   63,000;    0,000
370,889;   85,000;   47,000;    0,000
370,898;   39,000;   86,000;    0,000
370,908;  -46,000;  -94,000;    0,000
370,917;  357,000;  321,000;    0,000
370,927; -219,000; -148,000;    0,000
370,936; -236,000; -177,000;    0,000
370,945;  223,000;   41,000;    0,000
370,955;  194,000;  231,000;    0,000
370,964; -318,000; -281,000;    0,000

